# Version 2.1 - nm, norm@500 to 1, cut digits
# Wavelength(nm)  Flambda(ergs/cm^s/s/nm)
300.00 1.075632e-95
300.10 1.075632e-95
300.20 1.075632e-95
300.30 1.075632e-95
300.40 1.075632e-95
300.50 1.075632e-95
300.60 1.075632e-95
300.70 1.075632e-95
300.80 1.075632e-95
300.90 1.075632e-95
301.00 1.075632e-95
301.10 1.075632e-95
301.20 1.075632e-95
301.30 1.075632e-95
301.40 1.075632e-95
301.50 1.075632e-95
301.60 1.075632e-95
301.70 1.075632e-95
301.80 1.075632e-95
301.90 1.075632e-95
302.00 1.075632e-95
302.10 1.075632e-95
302.20 1.075632e-95
302.30 1.075632e-95
302.40 1.075632e-95
302.50 1.075632e-95
302.60 1.075632e-95
302.70 1.075632e-95
302.80 1.075632e-95
302.90 1.075632e-95
303.00 1.075632e-95
303.10 1.075632e-95
303.20 1.075632e-95
303.30 1.075632e-95
303.40 1.075632e-95
303.50 1.075632e-95
303.60 1.075632e-95
303.70 1.075632e-95
303.80 1.075632e-95
303.90 1.075632e-95
304.00 1.075632e-95
304.10 1.075632e-95
304.20 1.075632e-95
304.30 1.075632e-95
304.40 1.075632e-95
304.50 1.075632e-95
304.60 1.075632e-95
304.70 1.075632e-95
304.80 1.075632e-95
304.90 1.075632e-95
305.00 1.075632e-95
305.10 1.075632e-95
305.20 1.075632e-95
305.30 1.075632e-95
305.40 1.075632e-95
305.50 1.075632e-95
305.60 1.075632e-95
305.70 1.075632e-95
305.80 1.075632e-95
305.90 1.075632e-95
306.00 1.075632e-95
306.10 1.075632e-95
306.20 1.075632e-95
306.30 1.075632e-95
306.40 1.075632e-95
306.50 1.075632e-95
306.60 1.075632e-95
306.70 1.075632e-95
306.80 1.075632e-95
306.90 1.075632e-95
307.00 1.075632e-95
307.10 1.075632e-95
307.20 1.075632e-95
307.30 1.075632e-95
307.40 1.075632e-95
307.50 1.075632e-95
307.60 1.075632e-95
307.70 1.075632e-95
307.80 1.075632e-95
307.90 1.075632e-95
308.00 1.075632e-95
308.10 1.075632e-95
308.20 1.075632e-95
308.30 1.075632e-95
308.40 1.075632e-95
308.50 1.075632e-95
308.60 1.075632e-95
308.70 1.075632e-95
308.80 1.075632e-95
308.90 1.075632e-95
309.00 1.075632e-95
309.10 1.075632e-95
309.20 1.075632e-95
309.30 1.075632e-95
309.40 1.075632e-95
309.50 1.075632e-95
309.60 1.075632e-95
309.70 1.075632e-95
309.80 1.075632e-95
309.90 1.075632e-95
310.00 1.075632e-95
310.10 1.075632e-95
310.20 1.075632e-95
310.30 1.075632e-95
310.40 1.075632e-95
310.50 1.075632e-95
310.60 1.075632e-95
310.70 1.075632e-95
310.80 1.075632e-95
310.90 1.075632e-95
311.00 1.075632e-95
311.10 1.075632e-95
311.20 1.075632e-95
311.30 1.075632e-95
311.40 1.075632e-95
311.50 1.075632e-95
311.60 1.075632e-95
311.70 1.075632e-95
311.80 1.075632e-95
311.90 1.075632e-95
312.00 1.075632e-95
312.10 1.075632e-95
312.20 1.075632e-95
312.30 1.075632e-95
312.40 1.075632e-95
312.50 1.075632e-95
312.60 1.075632e-95
312.70 1.075632e-95
312.80 1.075632e-95
312.90 1.075632e-95
313.00 1.075632e-95
313.10 1.075632e-95
313.20 1.075632e-95
313.30 1.075632e-95
313.40 1.075632e-95
313.50 1.075632e-95
313.60 1.075632e-95
313.70 1.075632e-95
313.80 1.075632e-95
313.90 1.075632e-95
314.00 1.075632e-95
314.10 1.075632e-95
314.20 1.075632e-95
314.30 1.075632e-95
314.40 1.075632e-95
314.50 1.075632e-95
314.60 1.075632e-95
314.70 1.075632e-95
314.80 1.075632e-95
314.90 1.075632e-95
315.00 1.075632e-95
315.10 1.075632e-95
315.20 1.075632e-95
315.30 1.075632e-95
315.40 1.075632e-95
315.50 1.075632e-95
315.60 1.075632e-95
315.70 1.075632e-95
315.80 1.075632e-95
315.90 1.075632e-95
316.00 1.075632e-95
316.10 1.075632e-95
316.20 1.075632e-95
316.30 1.075632e-95
316.40 1.075632e-95
316.50 1.075632e-95
316.60 1.075632e-95
316.70 1.075632e-95
316.80 1.075632e-95
316.90 1.075632e-95
317.00 1.075632e-95
317.10 1.075632e-95
317.20 1.075632e-95
317.30 1.075632e-95
317.40 1.075632e-95
317.50 1.075632e-95
317.60 1.075632e-95
317.70 1.075632e-95
317.80 1.075632e-95
317.90 1.075632e-95
318.00 1.075632e-95
318.10 1.075632e-95
318.20 1.075632e-95
318.30 1.075632e-95
318.40 1.075632e-95
318.50 1.075632e-95
318.60 1.075632e-95
318.70 1.075632e-95
318.80 1.075632e-95
318.90 1.075632e-95
319.00 1.075632e-95
319.10 1.075632e-95
319.20 1.075632e-95
319.30 1.075632e-95
319.40 1.075632e-95
319.50 1.075632e-95
319.60 1.075632e-95
319.70 1.075632e-95
319.80 1.075632e-95
319.90 1.075632e-95
320.00 1.075632e-95
320.10 1.075632e-95
320.20 1.075632e-95
320.30 1.075632e-95
320.40 1.075632e-95
320.50 1.075632e-95
320.60 1.075632e-95
320.70 1.075632e-95
320.80 1.075632e-95
320.90 1.075632e-95
321.00 1.075632e-95
321.10 1.075632e-95
321.20 1.075632e-95
321.30 1.075632e-95
321.40 1.075632e-95
321.50 1.075632e-95
321.60 1.075632e-95
321.70 1.075632e-95
321.80 1.075632e-95
321.90 1.075632e-95
322.00 1.075632e-95
322.10 1.075632e-95
322.20 1.075632e-95
322.30 1.075632e-95
322.40 1.075632e-95
322.50 1.075632e-95
322.60 1.075632e-95
322.70 1.075632e-95
322.80 1.075632e-95
322.90 1.075632e-95
323.00 1.075632e-95
323.10 1.075632e-95
323.20 1.075632e-95
323.30 1.075632e-95
323.40 1.075632e-95
323.50 1.075632e-95
323.60 1.075632e-95
323.70 1.075632e-95
323.80 1.075632e-95
323.90 1.075632e-95
324.00 1.075632e-95
324.10 1.075632e-95
324.20 1.075632e-95
324.30 1.075632e-95
324.40 1.075632e-95
324.50 1.075632e-95
324.60 1.075632e-95
324.70 1.075632e-95
324.80 1.075632e-95
324.90 1.075632e-95
325.00 1.075632e-95
325.10 1.075632e-95
325.20 1.075632e-95
325.30 1.075632e-95
325.40 1.075632e-95
325.50 1.075632e-95
325.60 1.075632e-95
325.70 1.075632e-95
325.80 1.075632e-95
325.90 1.075632e-95
326.00 1.075632e-95
326.10 1.075632e-95
326.20 1.075632e-95
326.30 1.075632e-95
326.40 1.075632e-95
326.50 1.075632e-95
326.60 1.075632e-95
326.70 1.075632e-95
326.80 1.075632e-95
326.90 1.075632e-95
327.00 1.075632e-95
327.10 1.075632e-95
327.20 1.075632e-95
327.30 1.075632e-95
327.40 1.075632e-95
327.50 1.075632e-95
327.60 1.075632e-95
327.70 1.075632e-95
327.80 1.075632e-95
327.90 1.075632e-95
328.00 1.075632e-95
328.10 1.075632e-95
328.20 1.075632e-95
328.30 1.075632e-95
328.40 1.075632e-95
328.50 1.075632e-95
328.60 1.075632e-95
328.70 1.075632e-95
328.80 1.075632e-95
328.90 1.075632e-95
329.00 1.075632e-95
329.10 1.075632e-95
329.20 1.075632e-95
329.30 1.075632e-95
329.40 1.075632e-95
329.50 1.075632e-95
329.60 1.075632e-95
329.70 1.075632e-95
329.80 1.075632e-95
329.90 1.075632e-95
330.00 1.075632e-95
330.10 1.075632e-95
330.20 1.075632e-95
330.30 1.075632e-95
330.40 1.075632e-95
330.50 1.075632e-95
330.60 1.075632e-95
330.70 1.075632e-95
330.80 1.075632e-95
330.90 1.075632e-95
331.00 1.075632e-95
331.10 1.075632e-95
331.20 1.075632e-95
331.30 1.075632e-95
331.40 1.075632e-95
331.50 1.075632e-95
331.60 1.075632e-95
331.70 1.075632e-95
331.80 1.075632e-95
331.90 1.075632e-95
332.00 1.075632e-95
332.10 1.075632e-95
332.20 1.075632e-95
332.30 1.075632e-95
332.40 1.075632e-95
332.50 1.075632e-95
332.60 1.075632e-95
332.70 1.075632e-95
332.80 1.075632e-95
332.90 1.075632e-95
333.00 1.075632e-95
333.10 1.075632e-95
333.20 1.075632e-95
333.30 1.075632e-95
333.40 1.075632e-95
333.50 1.075632e-95
333.60 1.075632e-95
333.70 1.075632e-95
333.80 1.075632e-95
333.90 1.075632e-95
334.00 1.075632e-95
334.10 1.075632e-95
334.20 1.075632e-95
334.30 1.075632e-95
334.40 1.075632e-95
334.50 1.075632e-95
334.60 1.075632e-95
334.70 1.075632e-95
334.80 1.075632e-95
334.90 1.075632e-95
335.00 1.075632e-95
335.10 1.075632e-95
335.20 1.075632e-95
335.30 1.075632e-95
335.40 1.075632e-95
335.50 1.075632e-95
335.60 1.075632e-95
335.70 1.075632e-95
335.80 1.075632e-95
335.90 1.075632e-95
336.00 1.075632e-95
336.10 1.075632e-95
336.20 1.075632e-95
336.30 1.075632e-95
336.40 1.075632e-95
336.50 1.075632e-95
336.60 1.075632e-95
336.70 1.075632e-95
336.80 1.075632e-95
336.90 1.075632e-95
337.00 1.075632e-95
337.10 1.075632e-95
337.20 1.075632e-95
337.30 1.075632e-95
337.40 1.075632e-95
337.50 1.075632e-95
337.60 1.075632e-95
337.70 1.075632e-95
337.80 1.075632e-95
337.90 1.075632e-95
338.00 1.075632e-95
338.10 1.075632e-95
338.20 1.075632e-95
338.30 1.075632e-95
338.40 1.075632e-95
338.50 1.075632e-95
338.60 1.075632e-95
338.70 1.075632e-95
338.80 1.075632e-95
338.90 1.075632e-95
339.00 1.075632e-95
339.10 1.075632e-95
339.20 1.075632e-95
339.30 1.075632e-95
339.40 1.075632e-95
339.50 1.075632e-95
339.60 1.075632e-95
339.70 1.075632e-95
339.80 1.075632e-95
339.90 1.075632e-95
340.00 1.075632e-95
340.10 1.075632e-95
340.20 1.075632e-95
340.30 1.075632e-95
340.40 1.075632e-95
340.50 1.075632e-95
340.60 1.075632e-95
340.70 1.075632e-95
340.80 1.075632e-95
340.90 1.075632e-95
341.00 1.075632e-95
341.10 1.075632e-95
341.20 1.075632e-95
341.30 1.075632e-95
341.40 1.075632e-95
341.50 1.075632e-95
341.60 1.075632e-95
341.70 1.075632e-95
341.80 1.075632e-95
341.90 1.075632e-95
342.00 1.075632e-95
342.10 1.075632e-95
342.20 1.075632e-95
342.30 1.075632e-95
342.40 1.075632e-95
342.50 1.075632e-95
342.60 1.075632e-95
342.70 1.075632e-95
342.80 1.075632e-95
342.90 1.075632e-95
343.00 1.075632e-95
343.10 1.075632e-95
343.20 1.075632e-95
343.30 1.075632e-95
343.40 1.075632e-95
343.50 1.075632e-95
343.60 1.075632e-95
343.70 1.075632e-95
343.80 1.075632e-95
343.90 1.075632e-95
344.00 1.075632e-95
344.10 1.075632e-95
344.20 1.075632e-95
344.30 1.075632e-95
344.40 1.075632e-95
344.50 1.075632e-95
344.60 1.075632e-95
344.70 1.075632e-95
344.80 1.075632e-95
344.90 1.075632e-95
345.00 1.075632e-95
345.10 1.075632e-95
345.20 1.075632e-95
345.30 1.075632e-95
345.40 1.075632e-95
345.50 1.075632e-95
345.60 1.075632e-95
345.70 1.075632e-95
345.80 1.075632e-95
345.90 1.075632e-95
346.00 1.075632e-95
346.10 1.075632e-95
346.20 1.075632e-95
346.30 1.075632e-95
346.40 1.075632e-95
346.50 1.075632e-95
346.60 1.075632e-95
346.70 1.075632e-95
346.80 1.075632e-95
346.90 1.075632e-95
347.00 1.075632e-95
347.10 1.075632e-95
347.20 1.075632e-95
347.30 1.075632e-95
347.40 1.075632e-95
347.50 1.075632e-95
347.60 1.075632e-95
347.70 1.075632e-95
347.80 1.075632e-95
347.90 1.075632e-95
348.00 1.075632e-95
348.10 1.075632e-95
348.20 1.075632e-95
348.30 1.075632e-95
348.40 1.075632e-95
348.50 1.075632e-95
348.60 1.075632e-95
348.70 1.075632e-95
348.80 1.075632e-95
348.90 1.075632e-95
349.00 1.075632e-95
349.10 1.075632e-95
349.20 1.075632e-95
349.30 1.075632e-95
349.40 1.075632e-95
349.50 1.075632e-95
349.60 1.075632e-95
349.70 1.075632e-95
349.80 1.075632e-95
349.90 1.075632e-95
350.00 1.075632e-95
350.10 1.075632e-95
350.20 1.075632e-95
350.30 1.075632e-95
350.40 1.075632e-95
350.50 1.075632e-95
350.60 1.075632e-95
350.70 1.075632e-95
350.80 1.075632e-95
350.90 1.075632e-95
351.00 1.075632e-95
351.10 1.075632e-95
351.20 1.075632e-95
351.30 1.075632e-95
351.40 1.075632e-95
351.50 1.075632e-95
351.60 1.075632e-95
351.70 1.075632e-95
351.80 1.075632e-95
351.90 1.075632e-95
352.00 1.075632e-95
352.10 1.075632e-95
352.20 1.075632e-95
352.30 1.075632e-95
352.40 1.075632e-95
352.50 1.075632e-95
352.60 1.075632e-95
352.70 1.075632e-95
352.80 1.075632e-95
352.90 1.075632e-95
353.00 1.075632e-95
353.10 1.075632e-95
353.20 1.075632e-95
353.30 1.075632e-95
353.40 1.075632e-95
353.50 1.075632e-95
353.60 1.075632e-95
353.70 1.075632e-95
353.80 1.075632e-95
353.90 1.075632e-95
354.00 1.075632e-95
354.10 1.075632e-95
354.20 1.075632e-95
354.30 1.075632e-95
354.40 1.075632e-95
354.50 1.075632e-95
354.60 1.075632e-95
354.70 1.075632e-95
354.80 1.075632e-95
354.90 1.075632e-95
355.00 1.075632e-95
355.10 1.075632e-95
355.20 1.075632e-95
355.30 1.075632e-95
355.40 1.075632e-95
355.50 1.075632e-95
355.60 1.075632e-95
355.70 1.075632e-95
355.80 1.075632e-95
355.90 1.075632e-95
356.00 1.075632e-95
356.10 1.075632e-95
356.20 1.075632e-95
356.30 1.075632e-95
356.40 1.075632e-95
356.50 1.075632e-95
356.60 1.075632e-95
356.70 1.075632e-95
356.80 1.075632e-95
356.90 1.075632e-95
357.00 1.075632e-95
357.10 1.075632e-95
357.20 1.075632e-95
357.30 1.075632e-95
357.40 1.075632e-95
357.50 1.075632e-95
357.60 1.075632e-95
357.70 1.075632e-95
357.80 1.075632e-95
357.90 1.075632e-95
358.00 1.075632e-95
358.10 1.075632e-95
358.20 1.075632e-95
358.30 1.075632e-95
358.40 1.075632e-95
358.50 1.075632e-95
358.60 1.075632e-95
358.70 1.075632e-95
358.80 1.075632e-95
358.90 1.075632e-95
359.00 1.075632e-95
359.10 1.075632e-95
359.20 1.075632e-95
359.30 1.075632e-95
359.40 1.075632e-95
359.50 1.075632e-95
359.60 1.075632e-95
359.70 1.075632e-95
359.80 1.075632e-95
359.90 1.075632e-95
360.00 1.075632e-95
360.10 1.075632e-95
360.20 1.075632e-95
360.30 1.075632e-95
360.40 1.075632e-95
360.50 1.075632e-95
360.60 1.075632e-95
360.70 1.075632e-95
360.80 1.075632e-95
360.90 1.075632e-95
361.00 1.075632e-95
361.10 1.075632e-95
361.20 1.075632e-95
361.30 1.075632e-95
361.40 1.075632e-95
361.50 1.075632e-95
361.60 1.075632e-95
361.70 1.075632e-95
361.80 1.075632e-95
361.90 1.075632e-95
362.00 1.075632e-95
362.10 1.075632e-95
362.20 1.075632e-95
362.30 1.075632e-95
362.40 1.075632e-95
362.50 1.075632e-95
362.60 1.075632e-95
362.70 1.075632e-95
362.80 1.075632e-95
362.90 1.075632e-95
363.00 1.075632e-95
363.10 1.075632e-95
363.20 1.075632e-95
363.30 1.075632e-95
363.40 1.075632e-95
363.50 1.075632e-95
363.60 1.075632e-95
363.70 1.075632e-95
363.80 1.075632e-95
363.90 1.075632e-95
364.00 1.075632e-95
364.10 1.075632e-95
364.20 1.075632e-95
364.30 1.075632e-95
364.40 1.075632e-95
364.50 1.075632e-95
364.60 1.075632e-95
364.70 1.075632e-95
364.80 1.075632e-95
364.90 1.075632e-95
365.00 1.075632e-95
365.10 1.075632e-95
365.20 1.075632e-95
365.30 1.075632e-95
365.40 1.075632e-95
365.50 1.075632e-95
365.60 1.075632e-95
365.70 1.075632e-95
365.80 1.075632e-95
365.90 1.075632e-95
366.00 1.075632e-95
366.10 1.075632e-95
366.20 1.075632e-95
366.30 1.075632e-95
366.40 1.075632e-95
366.50 1.075632e-95
366.60 1.075632e-95
366.70 1.075632e-95
366.80 1.075632e-95
366.90 1.075632e-95
367.00 1.075632e-95
367.10 1.075632e-95
367.20 1.075632e-95
367.30 1.075632e-95
367.40 1.075632e-95
367.50 1.075632e-95
367.60 1.075632e-95
367.70 1.075632e-95
367.80 1.075632e-95
367.90 1.075632e-95
368.00 1.075632e-95
368.10 1.075632e-95
368.20 1.075632e-95
368.30 1.075632e-95
368.40 1.075632e-95
368.50 1.075632e-95
368.60 1.075632e-95
368.70 1.075632e-95
368.80 1.075632e-95
368.90 1.075632e-95
369.00 1.075632e-95
369.10 1.075632e-95
369.20 1.075632e-95
369.30 1.075632e-95
369.40 1.075632e-95
369.50 1.075632e-95
369.60 1.075632e-95
369.70 1.075632e-95
369.80 1.075632e-95
369.90 1.075632e-95
370.00 1.075632e-95
370.10 1.075632e-95
370.20 1.075632e-95
370.30 1.075632e-95
370.40 1.075632e-95
370.50 1.075632e-95
370.60 1.075632e-95
370.70 1.075632e-95
370.80 1.075632e-95
370.90 1.075632e-95
371.00 1.075632e-95
371.10 1.075632e-95
371.20 1.075632e-95
371.30 1.075632e-95
371.40 1.075632e-95
371.50 1.075632e-95
371.60 1.075632e-95
371.70 1.075632e-95
371.80 1.075632e-95
371.90 1.075632e-95
372.00 1.075632e-95
372.10 1.075632e-95
372.20 1.075632e-95
372.30 1.075632e-95
372.40 1.075632e-95
372.50 1.075632e-95
372.60 1.075632e-95
372.70 1.075632e-95
372.80 1.075632e-95
372.90 1.075632e-95
373.00 1.075632e-95
373.10 1.075632e-95
373.20 1.075632e-95
373.30 1.075632e-95
373.40 1.075632e-95
373.50 1.075632e-95
373.60 1.075632e-95
373.70 1.075632e-95
373.80 1.075632e-95
373.90 1.075632e-95
374.00 1.075632e-95
374.10 1.075632e-95
374.20 1.075632e-95
374.30 1.075632e-95
374.40 1.075632e-95
374.50 1.075632e-95
374.60 1.075632e-95
374.70 1.075632e-95
374.80 1.075632e-95
374.90 1.075632e-95
375.00 1.075632e-95
375.10 1.075632e-95
375.20 1.075632e-95
375.30 1.075632e-95
375.40 1.075632e-95
375.50 1.075632e-95
375.60 1.075632e-95
375.70 1.075632e-95
375.80 1.075632e-95
375.90 1.075632e-95
376.00 1.075632e-95
376.10 1.075632e-95
376.20 1.075632e-95
376.30 1.075632e-95
376.40 1.075632e-95
376.50 1.075632e-95
376.60 1.075632e-95
376.70 1.075632e-95
376.80 1.075632e-95
376.90 1.075632e-95
377.00 1.075632e-95
377.10 1.075632e-95
377.20 1.075632e-95
377.30 1.075632e-95
377.40 1.075632e-95
377.50 1.075632e-95
377.60 1.075632e-95
377.70 1.075632e-95
377.80 1.075632e-95
377.90 1.075632e-95
378.00 1.075632e-95
378.10 1.075632e-95
378.20 1.075632e-95
378.30 1.075632e-95
378.40 1.075632e-95
378.50 1.075632e-95
378.60 1.075632e-95
378.70 1.075632e-95
378.80 1.075632e-95
378.90 1.075632e-95
379.00 1.075632e-95
379.10 1.075632e-95
379.20 1.075632e-95
379.30 1.075632e-95
379.40 1.075632e-95
379.50 1.075632e-95
379.60 1.075632e-95
379.70 1.075632e-95
379.80 1.075632e-95
379.90 1.075632e-95
380.00 1.075632e-95
380.10 1.075632e-95
380.20 1.075632e-95
380.30 1.075632e-95
380.40 1.075632e-95
380.50 1.075632e-95
380.60 1.075632e-95
380.70 1.075632e-95
380.80 1.075632e-95
380.90 1.075632e-95
381.00 1.075632e-95
381.10 1.075632e-95
381.20 1.075632e-95
381.30 1.075632e-95
381.40 1.075632e-95
381.50 1.075632e-95
381.60 1.075632e-95
381.70 1.075632e-95
381.80 1.075632e-95
381.90 1.075632e-95
382.00 1.075632e-95
382.10 1.075632e-95
382.20 1.075632e-95
382.30 1.075632e-95
382.40 1.075632e-95
382.50 1.075632e-95
382.60 1.075632e-95
382.70 1.075632e-95
382.80 1.075632e-95
382.90 1.075632e-95
383.00 1.075632e-95
383.10 1.075632e-95
383.20 1.075632e-95
383.30 1.075632e-95
383.40 1.075632e-95
383.50 1.075632e-95
383.60 1.075632e-95
383.70 1.075632e-95
383.80 1.075632e-95
383.90 1.075632e-95
384.00 1.075632e-95
384.10 1.075632e-95
384.20 1.075632e-95
384.30 1.075632e-95
384.40 1.075632e-95
384.50 1.075632e-95
384.60 1.075632e-95
384.70 1.075632e-95
384.80 1.075632e-95
384.90 1.075632e-95
385.00 1.075632e-95
385.10 1.075632e-95
385.20 1.075632e-95
385.30 1.075632e-95
385.40 1.075632e-95
385.50 1.075632e-95
385.60 1.075632e-95
385.70 1.075632e-95
385.80 1.075632e-95
385.90 1.075632e-95
386.00 1.075632e-95
386.10 1.075632e-95
386.20 1.075632e-95
386.30 1.075632e-95
386.40 1.075632e-95
386.50 1.075632e-95
386.60 1.075632e-95
386.70 1.075632e-95
386.80 1.075632e-95
386.90 1.075632e-95
387.00 1.075632e-95
387.10 1.075632e-95
387.20 1.075632e-95
387.30 1.075632e-95
387.40 1.075632e-95
387.50 1.075632e-95
387.60 1.075632e-95
387.70 1.075632e-95
387.80 1.075632e-95
387.90 1.075632e-95
388.00 1.075632e-95
388.10 1.075632e-95
388.20 1.075632e-95
388.30 1.075632e-95
388.40 1.075632e-95
388.50 1.075632e-95
388.60 1.075632e-95
388.70 1.075632e-95
388.80 1.075632e-95
388.90 1.075632e-95
389.00 1.075632e-95
389.10 1.075632e-95
389.20 1.075632e-95
389.30 1.075632e-95
389.40 1.075632e-95
389.50 1.075632e-95
389.60 1.075632e-95
389.70 1.075632e-95
389.80 1.075632e-95
389.90 1.075632e-95
390.00 1.075632e-95
390.10 1.075632e-95
390.20 1.075632e-95
390.30 1.075632e-95
390.40 1.075632e-95
390.50 1.075632e-95
390.60 1.075632e-95
390.70 1.075632e-95
390.80 1.075632e-95
390.90 1.075632e-95
391.00 1.075632e-95
391.10 1.075632e-95
391.20 1.075632e-95
391.30 1.075632e-95
391.40 1.075632e-95
391.50 1.075632e-95
391.60 1.075632e-95
391.70 1.075632e-95
391.80 1.075632e-95
391.90 1.075632e-95
392.00 1.075632e-95
392.10 1.075632e-95
392.20 1.075632e-95
392.30 1.075632e-95
392.40 1.075632e-95
392.50 1.075632e-95
392.60 1.075632e-95
392.70 1.075632e-95
392.80 1.075632e-95
392.90 1.075632e-95
393.00 1.075632e-95
393.10 1.075632e-95
393.20 1.075632e-95
393.30 1.075632e-95
393.40 1.075632e-95
393.50 1.075632e-95
393.60 1.075632e-95
393.70 1.075632e-95
393.80 1.075632e-95
393.90 1.075632e-95
394.00 1.075632e-95
394.10 1.075632e-95
394.20 1.075632e-95
394.30 1.075632e-95
394.40 1.075632e-95
394.50 1.075632e-95
394.60 1.075632e-95
394.70 1.075632e-95
394.80 1.075632e-95
394.90 1.075632e-95
395.00 0.0169493
395.10 0.03274359
395.20 0.04691735
395.30 0.05912604
395.40 0.06894828
395.50 0.07596948
395.60 0.08041156
395.70 0.08281491
395.80 0.08382215
395.90 0.0844343
396.00 0.0863653
396.10 0.09178636
396.20 0.1023431
396.30 0.1186235
396.40 0.1398835
396.50 0.1640863
396.60 0.1884427
396.70 0.2100901
396.80 0.2268433
396.90 0.2375516
397.00 0.241999
397.10 0.241999
397.20 0.241999
397.30 0.241999
397.40 0.241999
397.50 0.241999
397.60 0.241999
397.70 0.2438784
397.80 0.2466237
397.90 0.2492943
398.00 0.2514499
398.10 0.25324
398.20 0.255267
398.30 0.2582886
398.40 0.2628986
398.50 0.2692809
398.60 0.2767592
398.70 0.2841072
398.80 0.2902818
398.90 0.294502
399.00 0.2961161
399.10 0.2961161
399.20 0.2961161
399.30 0.2961161
399.40 0.2961161
399.50 0.2961161
399.60 0.2961161
399.70 0.2961161
399.80 0.2961161
399.90 0.2961161
400.00 0.2961161
400.10 0.2961161
400.20 0.2961161
400.30 0.2961161
400.40 0.2961161
400.50 0.2961161
400.60 0.2961161
400.70 0.2961161
400.80 0.2970734
400.90 0.3012749
401.00 0.3089991
401.10 0.3197358
401.20 0.3325389
401.30 0.3465691
401.40 0.3610855
401.50 0.3753311
401.60 0.3884393
401.70 0.3995179
401.80 0.4079383
401.90 0.4137834
402.00 0.4180917
402.10 0.4223066
402.20 0.4278846
402.30 0.4358286
402.40 0.4463828
402.50 0.4591545
402.60 0.4733264
402.70 0.4878792
402.80 0.5019049
402.90 0.5149918
403.00 0.5269966
403.10 0.5374455
403.20 0.5457033
403.30 0.551382
403.40 0.5542378
403.50 0.55428
403.60 0.55428
403.70 0.55428
403.80 0.55428
403.90 0.55428
404.00 0.55428
404.10 0.5564227
404.20 0.5618639
404.30 0.5693665
404.40 0.5775409
404.50 0.5855931
404.60 0.5932917
404.70 0.6004712
404.80 0.6070103
404.90 0.6129182
405.00 0.6015939
405.10 0.5922295
405.20 0.5869277
405.30 0.5874346
405.40 0.5947834
405.50 0.6097014
405.60 0.6321871
405.70 0.6609959
405.80 0.693716
405.90 0.7270734
406.00 0.7571633
406.10 0.7800559
406.20 0.7930364
406.30 0.7955009
406.40 0.7891877
406.50 0.7776255
406.60 0.764711
406.70 0.7540632
406.80 0.7487951
406.90 0.7506659
407.00 0.7597188
407.10 0.7735994
407.20 0.7873456
407.30 0.8004067
407.40 0.8118484
407.50 0.8206973
407.60 0.8266814
407.70 0.8285763
407.80 0.8285333
407.90 0.8284958
408.00 0.8301363
408.10 0.8347471
408.20 0.8425799
408.30 0.8526241
408.40 0.863518
408.50 0.8740738
408.60 0.883232
408.70 0.8903385
408.80 0.8952853
408.90 0.8986827
409.00 0.9016255
409.10 0.9038618
409.20 0.9050627
409.30 0.9070141
409.40 0.9114423
409.50 0.9196021
409.60 0.9321555
409.70 0.9491495
409.80 0.9696243
409.90 0.9920099
410.00 1.015046
410.10 1.037715
410.20 1.059172
410.30 1.078874
410.40 1.096763
410.50 1.113376
410.60 1.129322
410.70 1.144889
410.80 1.159341
410.90 1.170737
411.00 1.17922
411.10 1.185472
411.20 1.190205
411.30 1.194314
411.40 1.198881
411.50 1.204739
411.60 1.212485
411.70 1.222314
411.80 1.233821
411.90 1.245772
412.00 1.256363
412.10 1.264031
412.20 1.267685
412.30 1.267092
412.40 1.263049
412.50 1.257058
412.60 1.250553
412.70 1.244064
412.80 1.237302
412.90 1.229575
413.00 1.220437
413.10 1.210544
413.20 1.202286
413.30 1.196608
413.40 1.195284
413.50 1.199395
413.60 1.206577
413.70 1.216282
413.80 1.227188
413.90 1.237707
414.00 1.246659
414.10 1.251261
414.20 1.250347
414.30 1.245781
414.40 1.239954
414.50 1.235094
414.60 1.232645
414.70 1.233676
414.80 1.239031
414.90 1.24868
415.00 1.261497
415.10 1.275152
415.20 1.286713
415.30 1.293738
415.40 1.295017
415.50 1.2899
415.60 1.277936
415.70 1.259934
415.80 1.237945
415.90 1.214372
416.00 1.191537
416.10 1.171186
416.20 1.154316
416.30 1.141139
416.40 1.131123
416.50 1.123371
416.60 1.117143
416.70 1.111661
416.80 1.105612
416.90 1.098006
417.00 1.08894
417.10 1.078879
417.20 1.068287
417.30 1.057789
417.40 1.048479
417.50 1.04173
417.60 1.038378
417.70 1.038112
417.80 1.039661
417.90 1.041528
418.00 1.042075
418.10 1.039632
418.20 1.033242
418.30 1.022957
418.40 1.009036
418.50 0.9921906
418.60 0.9755541
418.70 0.9610996
418.80 0.9499782
418.90 0.9423607
419.00 0.9378038
419.10 0.9355675
419.20 0.9343666
419.30 0.9325076
419.40 0.9299417
419.50 0.9250528
419.60 0.9166554
419.70 0.9042296
419.80 0.8887533
419.90 0.8721592
420.00 0.8562263
420.10 0.842627
420.20 0.8326796
420.30 0.8268751
420.40 0.8247475
420.50 0.8249962
420.60 0.8259557
420.70 0.8264382
420.80 0.825931
420.90 0.8239208
421.00 0.8197267
421.10 0.8130386
421.20 0.8039323
421.30 0.7921608
421.40 0.7774343
421.50 0.7601142
421.60 0.7410925
421.70 0.7217457
421.80 0.7037651
421.90 0.6887404
422.00 0.677529
422.10 0.6698337
422.20 0.6645848
422.30 0.6607268
422.40 0.6575184
422.50 0.6543344
422.60 0.6509903
422.70 0.648463
422.80 0.6485282
422.90 0.6526555
423.00 0.6614101
423.10 0.6741769
423.20 0.688484
423.30 0.7029982
423.40 0.7153153
423.50 0.7234991
423.60 0.7262461
423.70 0.7230834
423.80 0.7146881
423.90 0.7041688
424.00 0.6952165
424.10 0.6884717
424.20 0.6839448
424.30 0.6828527
424.40 0.6867467
424.50 0.6941043
424.60 0.7031044
424.70 0.71182
424.80 0.7183424
424.90 0.7214583
425.00 0.7206952
425.10 0.7161538
425.20 0.7082842
425.30 0.6980496
425.40 0.6864043
425.50 0.6738673
425.60 0.6609908
425.70 0.6485683
425.80 0.637367
425.90 0.627686
426.00 0.6193198
426.10 0.612227
426.20 0.6064928
426.30 0.6019575
426.40 0.5983686
426.50 0.5955849
426.60 0.5935781
426.70 0.5920245
426.80 0.5905899
426.90 0.5890854
427.00 0.5872235
427.10 0.5849611
427.20 0.5825621
427.30 0.5806283
427.40 0.5797162
427.50 0.5795461
427.60 0.5792975
427.70 0.5783516
427.80 0.5765064
427.90 0.5738867
428.00 0.57089
428.10 0.5682417
428.20 0.5665341
428.30 0.5661763
428.40 0.5675814
428.50 0.5707
428.60 0.5739407
428.70 0.577385
428.80 0.5814904
428.90 0.5865885
429.00 0.5924453
429.10 0.5985677
429.20 0.6046955
429.30 0.6107217
429.40 0.6149533
429.50 0.6176148
429.60 0.6192721
429.70 0.620605
429.80 0.6218486
429.90 0.6229144
430.00 0.6233295
430.10 0.6222935
430.20 0.6192647
430.30 0.6143559
430.40 0.6084325
430.50 0.6028174
430.60 0.5988031
430.70 0.597015
430.80 0.5971335
430.90 0.5984933
431.00 0.6002228
431.10 0.60149
431.20 0.6018874
431.30 0.6014153
431.40 0.6005125
431.50 0.5996914
431.60 0.5992772
431.70 0.599648
431.80 0.6009161
431.90 0.6026869
432.00 0.6043975
432.10 0.6056798
432.20 0.6067105
432.30 0.6077642
432.40 0.6088561
432.50 0.6098393
432.60 0.6105244
432.70 0.6105853
432.80 0.6093329
432.90 0.606049
433.00 0.6001665
433.10 0.5915143
433.20 0.5806371
433.30 0.5684805
433.40 0.5561486
433.50 0.5446862
433.60 0.5349377
433.70 0.5283957
433.80 0.5258849
433.90 0.5258849
434.00 0.5258849
434.10 0.5258849
434.20 0.5258849
434.30 0.5240406
434.40 0.5177987
434.50 0.5080814
434.60 0.4966357
434.70 0.4844564
434.80 0.4723402
434.90 0.4609568
435.00 0.4505916
435.10 0.44105
435.20 0.432059
435.30 0.4235197
435.40 0.4167149
435.50 0.4124298
435.60 0.410577
435.70 0.4121181
435.80 0.4159662
435.90 0.4211325
436.00 0.4268361
436.10 0.4323415
436.20 0.4369291
436.30 0.4400263
436.40 0.4414932
436.50 0.4415517
436.60 0.4405562
436.70 0.4390398
436.80 0.4375535
436.90 0.4364302
437.00 0.4360559
437.10 0.4370319
437.20 0.4397814
437.30 0.4441085
437.40 0.4495329
437.50 0.4559968
437.60 0.4636957
437.70 0.4725953
437.80 0.4825539
437.90 0.4935466
438.00 0.5052934
438.10 0.517295
438.20 0.5294761
438.30 0.5420769
438.40 0.5554333
438.50 0.5699922
438.60 0.585905
438.70 0.6028606
438.80 0.6202422
438.90 0.6372996
439.00 0.6536004
439.10 0.669181
439.20 0.6839539
439.30 0.6973049
439.40 0.7086579
439.50 0.7177998
439.60 0.7243124
439.70 0.7277762
439.80 0.7280254
439.90 0.7251379
440.00 0.7196773
440.10 0.7125345
440.20 0.7044804
440.30 0.6962656
440.40 0.6889068
440.50 0.6833801
440.60 0.6802797
440.70 0.6797965
440.80 0.6817481
440.90 0.6857717
441.00 0.6916885
441.10 0.699021
441.20 0.7070447
441.30 0.7151576
441.40 0.7227035
441.50 0.7292245
441.60 0.7346131
441.70 0.7386261
441.80 0.7408221
441.90 0.7410437
442.00 0.7396361
442.10 0.7375653
442.20 0.7357479
442.30 0.7344606
442.40 0.7334272
442.50 0.7323144
442.60 0.731052
442.70 0.7298358
442.80 0.7290456
442.90 0.7289409
443.00 0.7299033
443.10 0.7324282
443.20 0.7365377
443.30 0.741718
443.40 0.747472
443.50 0.7534285
443.60 0.7594802
443.70 0.7650707
443.80 0.7703364
443.90 0.776047
444.00 0.7830682
444.10 0.7919325
444.20 0.8025281
444.30 0.8141204
444.40 0.8255127
444.50 0.834562
444.60 0.8391131
444.70 0.838665
444.80 0.8336021
444.90 0.8263126
445.00 0.8189988
445.10 0.8129972
445.20 0.8094251
445.30 0.8090244
445.40 0.8116492
445.50 0.815887
445.60 0.821224
445.70 0.8258623
445.80 0.8301276
445.90 0.8349413
446.00 0.8412301
446.10 0.8494673
446.20 0.8598554
446.30 0.8721818
446.40 0.8850658
446.50 0.8960842
446.60 0.902855
446.70 0.9043916
446.80 0.9018766
446.90 0.8995312
447.00 0.8973325
447.10 0.8947992
447.20 0.891793
447.30 0.8908973
447.40 0.8917779
447.50 0.8937647
447.60 0.8959337
447.70 0.897378
447.80 0.8976585
447.90 0.8968534
448.00 0.8954585
448.10 0.8937121
448.20 0.89118
448.30 0.8877545
448.40 0.8838165
448.50 0.8794267
448.60 0.8744222
448.70 0.8686343
448.80 0.8618214
448.90 0.8537815
449.00 0.8442871
449.10 0.8330864
449.20 0.8205092
449.30 0.807742
449.40 0.7962487
449.50 0.7873203
449.60 0.7819077
449.70 0.7802553
449.80 0.782134
449.90 0.7874707
450.00 0.7963037
450.10 0.8083047
450.20 0.8228084
450.30 0.8387281
450.40 0.8541708
450.50 0.8668722
450.60 0.8750528
450.70 0.8779892
450.80 0.8761508
450.90 0.8709292
451.00 0.8644424
451.10 0.8593772
451.20 0.8581898
451.30 0.8621361
451.40 0.871043
451.50 0.8838042
451.60 0.8988
451.70 0.9143782
451.80 0.9297531
451.90 0.9449463
452.00 0.9601479
452.10 0.9753189
452.20 0.9903251
452.30 1.005576
452.40 1.021813
452.50 1.039305
452.60 1.057584
452.70 1.075779
452.80 1.092918
452.90 1.107984
453.00 1.120105
453.10 1.128691
453.20 1.133421
453.30 1.134636
453.40 1.133181
453.50 1.130115
453.60 1.126535
453.70 1.123179
453.80 1.120336
453.90 1.11805
454.00 1.116221
454.10 1.114673
454.20 1.113582
454.30 1.11386
454.40 1.116848
454.50 1.123644
454.60 1.134682
454.70 1.149624
454.80 1.167619
454.90 1.186397
455.00 1.204798
455.10 1.223164
455.20 1.241754
455.30 1.260028
455.40 1.276513
455.50 1.291572
455.60 1.305046
455.70 1.316173
455.80 1.323854
455.90 1.327243
456.00 1.326287
456.10 1.32161
456.20 1.314289
456.30 1.305774
456.40 1.297949
456.50 1.293072
456.60 1.293264
456.70 1.299477
456.80 1.310347
456.90 1.320893
457.00 1.329601
457.10 1.334994
457.20 1.336122
457.30 1.332061
457.40 1.324537
457.50 1.314156
457.60 1.301904
457.70 1.290153
457.80 1.282579
457.90 1.279687
458.00 1.280589
458.10 1.283805
458.20 1.287873
458.30 1.291407
458.40 1.293645
458.50 1.29464
458.60 1.294409
458.70 1.29281
458.80 1.289852
458.90 1.285889
459.00 1.281869
459.10 1.278758
459.20 1.276661
459.30 1.275084
459.40 1.273522
459.50 1.271731
459.60 1.270116
459.70 1.269683
459.80 1.271371
459.90 1.275434
460.00 1.28139
460.10 1.28831
460.20 1.295196
460.30 1.301401
460.40 1.306452
460.50 1.309917
460.60 1.312104
460.70 1.313991
460.80 1.316635
460.90 1.320701
461.00 1.325878
461.10 1.331079
461.20 1.335376
461.30 1.338791
461.40 1.342093
461.50 1.346147
461.60 1.351696
461.70 1.358757
461.80 1.366386
461.90 1.37341
462.00 1.378676
462.10 1.381199
462.20 1.380133
462.30 1.374662
462.40 1.36475
462.50 1.351426
462.60 1.336165
462.70 1.320286
462.80 1.30507
462.90 1.292052
463.00 1.282491
463.10 1.277498
463.20 1.278146
463.30 1.284544
463.40 1.295599
463.50 1.309326
463.60 1.323432
463.70 1.335912
463.80 1.345265
463.90 1.350503
464.00 1.351392
464.10 1.348643
464.20 1.343545
464.30 1.337233
464.40 1.330368
464.50 1.323109
464.60 1.315394
464.70 1.307316
464.80 1.298869
464.90 1.289736
465.00 1.27935
465.10 1.267197
465.20 1.253008
465.30 1.236796
465.40 1.218848
465.50 1.199903
465.60 1.181161
465.70 1.164112
465.80 1.150457
465.90 1.141156
466.00 1.136041
466.10 1.134211
466.20 1.134178
466.30 1.13435
466.40 1.133823
466.50 1.132609
466.60 1.131045
466.70 1.129611
466.80 1.129225
466.90 1.131406
467.00 1.137873
467.10 1.149658
467.20 1.166392
467.30 1.185286
467.40 1.204322
467.50 1.223313
467.60 1.242265
467.70 1.259774
467.80 1.272304
467.90 1.278432
468.00 1.277871
468.10 1.271727
468.20 1.262069
468.30 1.250674
468.40 1.238363
468.50 1.225895
468.60 1.214521
468.70 1.205581
468.80 1.200091
468.90 1.1986
469.00 1.201135
469.10 1.207362
469.20 1.216965
469.30 1.229563
469.40 1.244227
469.50 1.259484
469.60 1.27357
469.70 1.28474
469.80 1.29177
469.90 1.293863
470.00 1.290717
470.10 1.282853
470.20 1.271311
470.30 1.257258
470.40 1.242217
470.50 1.228279
470.60 1.217115
470.70 1.209395
470.80 1.204993
470.90 1.20302
471.00 1.202007
471.10 1.200386
471.20 1.196688
471.30 1.189525
471.40 1.178119
471.50 1.162569
471.60 1.143799
471.70 1.123766
471.80 1.10484
471.90 1.088727
472.00 1.076382
472.10 1.06807
472.20 1.063689
472.30 1.062987
472.40 1.065287
472.50 1.069549
472.60 1.074784
472.70 1.080344
472.80 1.085593
472.90 1.089755
473.00 1.092123
473.10 1.091764
473.20 1.087828
473.30 1.080491
473.40 1.071054
473.50 1.061481
473.60 1.053942
473.70 1.050276
473.80 1.051465
473.90 1.057417
474.00 1.066988
474.10 1.07824
474.20 1.088965
474.30 1.097155
474.40 1.101526
474.50 1.101909
474.60 1.099158
474.70 1.094697
474.80 1.090515
474.90 1.088877
475.00 1.091351
475.10 1.098396
475.20 1.109467
475.30 1.123249
475.40 1.1379
475.50 1.151287
475.60 1.161442
475.70 1.166984
475.80 1.167411
475.90 1.16346
476.00 1.156719
476.10 1.148772
476.20 1.141307
476.30 1.135633
476.40 1.132316
476.50 1.130893
476.60 1.130616
476.70 1.130856
476.80 1.130853
476.90 1.129728
477.00 1.126693
477.10 1.121356
477.20 1.113582
477.30 1.103265
477.40 1.090532
477.50 1.075868
477.60 1.060005
477.70 1.044039
477.80 1.029519
477.90 1.018566
478.00 1.012893
478.10 1.012704
478.20 1.016869
478.30 1.023695
478.40 1.031497
478.50 1.038565
478.60 1.043518
478.70 1.045572
478.80 1.044556
478.90 1.040697
479.00 1.034199
479.10 1.025288
479.20 1.014427
479.30 1.001918
479.40 0.9878604
479.50 0.9727365
479.60 0.9575883
479.70 0.9435737
479.80 0.9312716
479.90 0.9209432
480.00 0.9127337
480.10 0.9065914
480.20 0.9027564
480.30 0.9018747
480.40 0.9044147
480.50 0.910169
480.60 0.9183809
480.70 0.9278499
480.80 0.9371015
480.90 0.9447603
481.00 0.9497376
481.10 0.9514716
481.20 0.9502553
481.30 0.9471435
481.40 0.9432153
481.50 0.9392141
481.60 0.9354008
481.70 0.9315265
481.80 0.9273006
481.90 0.9227336
482.00 0.918049
482.10 0.9136319
482.20 0.9099344
482.30 0.9072543
482.40 0.9059467
482.50 0.9063864
482.60 0.9086679
482.70 0.9124218
482.80 0.9172897
482.90 0.9232627
483.00 0.9302734
483.10 0.9379434
483.20 0.9455667
483.30 0.952141
483.40 0.9567377
483.50 0.9589026
483.60 0.9585489
483.70 0.9561737
483.80 0.9525612
483.90 0.9484082
484.00 0.9445166
484.10 0.9418052
484.20 0.9409898
484.30 0.942361
484.40 0.945876
484.50 0.9513671
484.60 0.9584539
484.70 0.9662837
484.80 0.9732104
484.90 0.9771364
485.00 0.976643
485.10 0.9711177
485.20 0.9610341
485.30 0.9482397
485.40 0.9353593
485.50 0.9251548
485.60 0.9199698
485.70 0.9210439
485.80 0.9281665
485.90 0.940034
486.00 0.9548911
486.10 0.971141
486.20 0.9871594
486.30 1.001612
486.40 1.013383
486.50 1.021758
486.60 1.026378
486.70 1.027203
486.80 1.024797
486.90 1.020252
487.00 1.015205
487.10 1.011794
487.20 1.012014
487.30 1.01685
487.40 1.026091
487.50 1.038659
487.60 1.053016
487.70 1.067755
487.80 1.081888
487.90 1.094418
488.00 1.104455
488.10 1.111818
488.20 1.116998
488.30 1.120864
488.40 1.124232
488.50 1.127581
488.60 1.131252
488.70 1.135494
488.80 1.140243
488.90 1.145304
489.00 1.150743
489.10 1.156473
489.20 1.162016
489.30 1.167242
489.40 1.172709
489.50 1.178912
489.60 1.185539
489.70 1.191912
489.80 1.197733
489.90 1.202862
490.00 1.207089
490.10 1.210476
490.20 1.213057
490.30 1.21443
490.40 1.2142
490.50 1.212311
490.60 1.209012
490.70 1.204733
490.80 1.199687
490.90 1.194081
491.00 1.188806
491.10 1.185142
491.20 1.183721
491.30 1.184406
491.40 1.186847
491.50 1.190463
491.60 1.194586
491.70 1.198772
491.80 1.202552
491.90 1.205434
492.00 1.20715
492.10 1.207556
492.20 1.206596
492.30 1.204185
492.40 1.199818
492.50 1.192695
492.60 1.182721
492.70 1.17087
492.80 1.158558
492.90 1.147041
493.00 1.137353
493.10 1.130228
493.20 1.125857
493.30 1.123961
493.40 1.123835
493.50 1.124556
493.60 1.125172
493.70 1.12477
493.80 1.123092
493.90 1.120653
494.00 1.118123
494.10 1.115945
494.20 1.114101
494.30 1.112266
494.40 1.11019
494.50 1.107906
494.60 1.105673
494.70 1.103808
494.80 1.10274
494.90 1.103198
495.00 1.106161
495.10 1.112551
495.20 1.122613
495.30 1.135616
495.40 1.149916
495.50 1.163392
495.60 1.174273
495.70 1.181631
495.80 1.185207
495.90 1.184878
496.00 1.180675
496.10 1.173109
496.20 1.163189
496.30 1.152003
496.40 1.140465
496.50 1.129505
496.60 1.119954
496.70 1.112174
496.80 1.106016
496.90 1.100996
497.00 1.09625
497.10 1.090518
497.20 1.082676
497.30 1.072446
497.40 1.060363
497.50 1.047324
497.60 1.034325
497.70 1.021995
497.80 1.010642
497.90 1.000519
498.00 0.991954
498.10 0.985269
498.20 0.9804748
498.30 0.9773058
498.40 0.9755528
498.50 0.9754071
498.60 0.9771033
498.70 0.9805839
498.80 0.9856565
498.90 0.99199
499.00 0.9989345
499.10 1.005837
499.20 1.012095
499.30 1.017029
499.40 1.01988
499.50 1.020099
499.60 1.017956
499.70 1.014326
499.80 1.009994
499.90 1.00524
500.00 1
500.10 0.9939139
500.20 0.9864257
500.30 0.9771861
500.40 0.9669438
500.50 0.9551294
500.60 0.9412225
500.70 0.9271418
500.80 0.9142312
500.90 0.9039985
501.00 0.8974729
501.10 0.894906
501.20 0.8960766
501.30 0.9005295
501.40 0.9076039
501.50 0.9166399
501.60 0.9269545
501.70 0.9377014
501.80 0.9481703
501.90 0.9578306
502.00 0.9662689
502.10 0.9733442
502.20 0.9790187
502.30 0.9832361
502.40 0.9861709
502.50 0.9882514
502.60 0.9895513
502.70 0.9897627
502.80 0.9885836
502.90 0.985922
503.00 0.9820603
503.10 0.9777549
503.20 0.9743156
503.30 0.9731612
503.40 0.9752919
503.50 0.9811515
503.60 0.990527
503.70 1.002443
503.80 1.015192
503.90 1.026752
504.00 1.035694
504.10 1.041796
504.20 1.045924
504.30 1.049302
504.40 1.053101
504.50 1.058122
504.60 1.064574
504.70 1.072317
504.80 1.081078
504.90 1.090178
505.00 1.098618
505.10 1.105725
505.20 1.111346
505.30 1.115682
505.40 1.119104
505.50 1.121737
505.60 1.123326
505.70 1.123595
505.80 1.122381
505.90 1.1199
506.00 1.116618
506.10 1.113111
506.20 1.109987
506.30 1.10774
506.40 1.106782
506.50 1.107107
506.60 1.108346
506.70 1.110428
506.80 1.113496
506.90 1.117297
507.00 1.121261
507.10 1.124916
507.20 1.127967
507.30 1.130087
507.40 1.130963
507.50 1.130433
507.60 1.128412
507.70 1.125093
507.80 1.120881
507.90 1.116339
508.00 1.112257
508.10 1.109258
508.20 1.107724
508.30 1.108126
508.40 1.110598
508.50 1.114473
508.60 1.118653
508.70 1.121987
508.80 1.123652
508.90 1.123278
509.00 1.12082
509.10 1.116618
509.20 1.111452
509.30 1.106496
509.40 1.103025
509.50 1.101958
509.60 1.103604
509.70 1.107582
509.80 1.113367
509.90 1.120741
510.00 1.129531
510.10 1.139632
510.20 1.150788
510.30 1.162492
510.40 1.173451
510.50 1.183981
510.60 1.194739
510.70 1.204151
510.80 1.211352
510.90 1.215381
511.00 1.215509
511.10 1.211614
511.20 1.204045
511.30 1.193414
511.40 1.18045
511.50 1.165822
511.60 1.150225
511.70 1.134473
511.80 1.119252
511.90 1.105152
512.00 1.092764
512.10 1.082723
512.20 1.075817
512.30 1.072844
512.40 1.074061
512.50 1.079077
512.60 1.086976
512.70 1.09628
512.80 1.10526
512.90 1.11229
513.00 1.116175
513.10 1.116238
513.20 1.11238
513.30 1.105171
513.40 1.095754
513.50 1.085336
513.60 1.074891
513.70 1.065256
513.80 1.057049
513.90 1.050605
514.00 1.045768
514.10 1.041712
514.20 1.037477
514.30 1.032627
514.40 1.027056
514.50 1.020944
514.60 1.014837
514.70 1.009341
514.80 1.004832
514.90 1.001457
515.00 0.9988889
515.10 0.9963199
515.20 0.9930068
515.30 0.988404
515.40 0.9823957
515.50 0.9755385
515.60 0.968642
515.70 0.9624509
515.80 0.9576427
515.90 0.9545298
516.00 0.9531843
516.10 0.9535854
516.20 0.9555339
516.30 0.9588398
516.40 0.9634619
516.50 0.9694829
516.60 0.9769129
516.70 0.9852785
516.80 0.9937869
516.90 1.002349
517.00 1.011622
517.10 1.022181
517.20 1.034518
517.30 1.049132
517.40 1.066089
517.50 1.084875
517.60 1.104651
517.70 1.124348
517.80 1.142829
517.90 1.159032
518.00 1.172029
518.10 1.181446
518.20 1.187635
518.30 1.191053
518.40 1.192252
518.50 1.192141
518.60 1.191664
518.70 1.191556
518.80 1.192081
518.90 1.192975
519.00 1.193707
519.10 1.193594
519.20 1.191959
519.30 1.188277
519.40 1.182356
519.50 1.174707
519.60 1.166374
519.70 1.158671
519.80 1.152869
519.90 1.149871
520.00 1.149867
520.10 1.152124
520.20 1.155546
520.30 1.159109
520.40 1.161579
520.50 1.16177
520.60 1.158894
520.70 1.152944
520.80 1.14522
520.90 1.137835
521.00 1.132791
521.10 1.131257
521.20 1.133258
521.30 1.13789
521.40 1.143918
521.50 1.150243
521.60 1.155998
521.70 1.160654
521.80 1.164637
521.90 1.169328
522.00 1.176264
522.10 1.186312
522.20 1.199073
522.30 1.213083
522.40 1.226639
522.50 1.238358
522.60 1.24741
522.70 1.253531
522.80 1.256858
522.90 1.258021
523.00 1.258167
523.10 1.258622
523.20 1.260128
523.30 1.262395
523.40 1.26441
523.50 1.265135
523.60 1.264012
523.70 1.260995
523.80 1.256362
523.90 1.250508
524.00 1.244138
524.10 1.238289
524.20 1.233791
524.30 1.231118
524.40 1.230341
524.50 1.230696
524.60 1.230821
524.70 1.229662
524.80 1.226866
524.90 1.222621
525.00 1.217429
525.10 1.212024
525.20 1.207351
525.30 1.204432
525.40 1.204034
525.50 1.206674
525.60 1.212928
525.70 1.222834
525.80 1.235652
525.90 1.250463
526.00 1.266287
526.10 1.281902
526.20 1.29609
526.30 1.307993
526.40 1.316957
526.50 1.322539
526.60 1.324639
526.70 1.323636
526.80 1.320351
526.90 1.315368
527.00 1.308812
527.10 1.300923
527.20 1.291992
527.30 1.282362
527.40 1.272887
527.50 1.264728
527.60 1.258817
527.70 1.255421
527.80 1.254242
527.90 1.254667
528.00 1.255758
528.10 1.256412
528.20 1.255447
528.30 1.251963
528.40 1.245791
528.50 1.237448
528.60 1.227951
528.70 1.21866
528.80 1.210889
528.90 1.205669
529.00 1.203794
529.10 1.205735
529.20 1.211513
529.30 1.220601
529.40 1.232138
529.50 1.244941
529.60 1.257733
529.70 1.269695
529.80 1.28042
529.90 1.289873
530.00 1.298723
530.10 1.308132
530.20 1.319067
530.30 1.331961
530.40 1.347035
530.50 1.364392
530.60 1.383778
530.70 1.404428
530.80 1.424818
530.90 1.443113
531.00 1.458009
531.10 1.469056
531.20 1.476776
531.30 1.482423
531.40 1.487255
531.50 1.492272
531.60 1.498295
531.70 1.505634
531.80 1.513383
531.90 1.519495
532.00 1.521796
532.10 1.518968
532.20 1.511118
532.30 1.499855
532.40 1.487597
532.50 1.476747
532.60 1.469294
532.70 1.466648
532.80 1.469748
532.90 1.478562
533.00 1.491749
533.10 1.507283
533.20 1.523245
533.30 1.538516
533.40 1.552842
533.50 1.566311
533.60 1.579019
533.70 1.591019
533.80 1.602502
533.90 1.613783
534.00 1.624852
534.10 1.635367
534.20 1.644906
534.30 1.652954
534.40 1.659039
534.50 1.66309
534.60 1.665434
534.70 1.666404
534.80 1.666155
534.90 1.664776
535.00 1.662584
535.10 1.659991
535.20 1.657123
535.30 1.654154
535.40 1.651528
535.50 1.64941
535.60 1.647167
535.70 1.643937
535.80 1.639196
535.90 1.632812
536.00 1.625005
536.10 1.616158
536.20 1.606746
536.30 1.597558
536.40 1.589857
536.50 1.58512
536.60 1.584693
536.70 1.589067
536.80 1.59771
536.90 1.609561
537.00 1.623197
537.10 1.636988
537.20 1.649464
537.30 1.659448
537.40 1.666094
537.50 1.669168
537.60 1.669117
537.70 1.666802
537.80 1.663142
537.90 1.658862
538.00 1.654688
538.10 1.651489
538.20 1.650221
538.30 1.651771
538.40 1.656601
538.50 1.664463
538.60 1.67447
538.70 1.685175
538.80 1.695037
538.90 1.702796
539.00 1.707669
539.10 1.709842
539.20 1.710458
539.30 1.711082
539.40 1.713179
539.50 1.717802
539.60 1.72513
539.70 1.734251
539.80 1.743623
539.90 1.751634
540.00 1.756793
540.10 1.757981
540.20 1.754774
540.30 1.747444
540.40 1.73675
540.50 1.72341
540.60 1.707835
540.70 1.690739
540.80 1.673158
540.90 1.655953
541.00 1.63983
541.10 1.625392
541.20 1.613202
541.30 1.603739
541.40 1.597353
541.50 1.594073
541.60 1.593387
541.70 1.594665
541.80 1.597702
541.90 1.602778
542.00 1.610401
542.10 1.620742
542.20 1.633489
542.30 1.647916
542.40 1.662766
542.50 1.676513
542.60 1.687656
542.70 1.695
542.80 1.697729
542.90 1.695758
543.00 1.690037
543.10 1.682174
543.20 1.673987
543.30 1.666942
543.40 1.661776
543.50 1.658645
543.60 1.657258
543.70 1.657044
543.80 1.657388
543.90 1.657716
544.00 1.65772
544.10 1.657191
544.20 1.655973
544.30 1.654003
544.40 1.651213
544.50 1.647701
544.60 1.643638
544.70 1.639173
544.80 1.634555
544.90 1.630169
545.00 1.626422
545.10 1.623542
545.20 1.621527
545.30 1.620024
545.40 1.618192
545.50 1.615192
545.60 1.610824
545.70 1.605477
545.80 1.599859
545.90 1.594773
546.00 1.590881
546.10 1.588684
546.20 1.588508
546.30 1.590031
546.40 1.592186
546.50 1.593705
546.60 1.593588
546.70 1.591573
546.80 1.588177
546.90 1.584426
547.00 1.581373
547.10 1.579649
547.20 1.5795
547.30 1.580685
547.40 1.582436
547.50 1.583743
547.60 1.58383
547.70 1.582598
547.80 1.580406
547.90 1.577785
548.00 1.575216
548.10 1.572943
548.20 1.571133
548.30 1.569638
548.40 1.567964
548.50 1.565773
548.60 1.562784
548.70 1.558829
548.80 1.554186
548.90 1.549661
549.00 1.546041
549.10 1.543451
549.20 1.541542
549.30 1.539876
549.40 1.537733
549.50 1.533907
549.60 1.527152
549.70 1.516751
549.80 1.502844
549.90 1.486361
550.00 1.309273
550.10 1.324862
550.20 1.343679
550.30 1.360771
550.40 1.371816
550.50 1.374379
550.60 1.368667
550.70 1.356724
550.80 1.340945
550.90 1.323568
551.00 1.306228
551.10 1.290263
551.20 1.277256
551.30 1.26834
551.40 1.264168
551.50 1.265314
551.60 1.271704
551.70 1.282393
551.80 1.29644
551.90 1.313003
552.00 1.330553
552.10 1.347459
552.20 1.363089
552.30 1.377638
552.40 1.391702
552.50 1.40542
552.60 1.41769
552.70 1.426966
552.80 1.432491
552.90 1.434353
553.00 1.433264
553.10 1.430641
553.20 1.428174
553.30 1.427599
553.40 1.430806
553.50 1.438727
553.60 1.450409
553.70 1.463518
553.80 1.475233
553.90 1.482991
554.00 1.485514
554.10 1.482761
554.20 1.475279
554.30 1.464417
554.40 1.452522
554.50 1.442058
554.60 1.434247
554.70 1.428943
554.80 1.425307
554.90 1.422075
555.00 1.416947
555.10 1.41096
555.20 1.408853
555.30 1.416581
555.40 1.442473
555.50 1.49313
555.60 1.57127
555.70 1.675713
555.80 1.799795
555.90 1.932153
556.00 2.060209
556.10 2.173178
556.20 2.263431
556.30 2.328239
556.40 2.371993
556.50 2.401522
556.60 2.423691
556.70 2.44569
556.80 2.47072
556.90 2.499306
557.00 2.530322
557.10 2.560924
557.20 2.588424
557.30 2.611033
557.40 2.627464
557.50 2.637093
557.60 2.640865
557.70 2.641302
557.80 2.641171
557.90 2.642295
558.00 2.646315
558.10 2.654915
558.20 2.668496
558.30 2.685683
558.40 2.703885
558.50 2.72033
558.60 2.73354
558.70 2.743796
558.80 2.753406
558.90 2.766575
559.00 2.788421
559.10 2.819148
559.20 2.853141
559.30 2.882349
559.40 2.895119
559.50 2.880038
559.60 2.831022
559.70 2.749138
559.80 2.642518
559.90 2.524033
560.00 2.408636
560.10 2.311075
560.20 2.242035
560.30 2.204487
560.40 2.192789
560.50 2.198849
560.60 2.214891
560.70 2.232456
560.80 2.245944
560.90 2.252181
561.00 2.25019
561.10 2.241538
561.20 2.228961
561.30 2.216342
561.40 2.207615
561.50 2.204717
561.60 2.207718
561.70 2.215854
561.80 2.228106
561.90 2.243198
562.00 2.2588
562.10 2.272323
562.20 2.282588
562.30 2.290072
562.40 2.2959
562.50 2.301043
562.60 2.305729
562.70 2.308997
562.80 2.309273
562.90 2.305757
563.00 2.298559
563.10 2.287907
563.20 2.274132
563.30 2.257852
563.40 2.2409
563.50 2.226386
563.60 2.216542
563.70 2.211495
563.80 2.210105
563.90 2.21068
564.00 2.21128
564.10 2.209533
564.20 2.202938
564.30 2.189691
564.40 2.169147
564.50 2.142305
564.60 2.11144
564.70 2.07964
564.80 2.050407
564.90 2.026503
565.00 2.009844
565.10 2.001534
565.20 2.001087
565.30 2.005957
565.40 2.012639
565.50 2.018329
565.60 2.021191
565.70 2.020593
565.80 2.017305
565.90 2.01292
566.00 2.008868
566.10 2.006551
566.20 2.007823
566.30 2.014609
566.40 2.028605
566.50 2.050718
566.60 2.081282
566.70 2.120363
566.80 2.166604
566.90 2.216667
567.00 2.266673
567.10 2.312561
567.20 2.350387
567.30 2.37788
567.40 2.395667
567.50 2.406297
567.60 2.412453
567.70 2.416805
567.80 2.42136
567.90 2.42716
568.00 2.433991
568.10 2.44062
568.20 2.446421
568.30 2.451688
568.40 2.45656
568.50 2.461502
568.60 2.468667
568.70 2.481446
568.80 2.502876
568.90 2.534719
569.00 2.576569
569.10 2.625345
569.20 2.676322
569.30 2.724284
569.40 2.764553
569.50 2.794185
569.60 2.811921
569.70 2.817062
569.80 2.809367
569.90 2.789523
570.00 2.759234
570.10 2.720519
570.20 2.675101
570.30 2.624727
570.40 2.571671
570.50 2.518815
570.60 2.469233
570.70 2.425434
570.80 2.388542
570.90 2.35752
571.00 2.330284
571.10 2.306137
571.20 2.286027
571.30 2.271113
571.40 2.260776
571.50 2.252701
571.60 2.24462
571.70 2.234844
571.80 2.222702
571.90 2.20856
572.00 2.192764
572.10 2.175447
572.20 2.156933
572.30 2.138027
572.40 2.119533
572.50 2.101055
572.60 2.080482
572.70 2.05493
572.80 2.022004
572.90 1.980481
573.00 1.931003
573.10 1.876169
573.20 1.819592
573.30 1.765014
573.40 1.716118
573.50 1.675638
573.60 1.644328
573.70 1.621403
573.80 1.605517
573.90 1.595403
574.00 1.590779
574.10 1.591674
574.20 1.597211
574.30 1.60579
574.40 1.615367
574.50 1.624013
574.60 1.630219
574.70 1.632707
574.80 1.631149
574.90 1.627239
575.00 1.624025
575.10 1.624482
575.20 1.630405
575.30 1.641551
575.40 1.655857
575.50 1.670983
575.60 1.685408
575.70 1.698114
575.80 1.708233
575.90 1.715217
576.00 1.719088
576.10 1.720626
576.20 1.721036
576.30 1.721791
576.40 1.724756
576.50 1.731388
576.60 1.742302
576.70 1.757885
576.80 1.779196
576.90 1.807183
577.00 1.841047
577.10 1.878348
577.20 1.915821
577.30 1.949644
577.40 1.976413
577.50 1.994297
577.60 2.003422
577.70 2.005648
577.80 2.003933
577.90 2.001966
578.00 2.003089
578.10 2.009656
578.20 2.022288
578.30 2.039461
578.40 2.058877
578.50 2.078183
578.60 2.095373
578.70 2.109549
578.80 2.120234
578.90 2.126776
579.00 2.128383
579.10 2.123779
579.20 2.112015
579.30 2.093986
579.40 2.07299
579.50 2.05322
579.60 2.037992
579.70 2.029315
579.80 2.028076
579.90 2.034134
580.00 2.046156
580.10 2.061547
580.20 2.077392
580.30 2.090674
580.40 2.098584
580.50 2.099589
580.60 2.093663
580.70 2.081513
580.80 2.062982
580.90 2.037365
581.00 2.00542
581.10 1.969852
581.20 1.93452
581.30 1.903843
581.40 1.881529
581.50 1.869731
581.60 1.868988
581.70 1.878197
581.80 1.894269
581.90 1.913142
582.00 1.930982
582.10 1.94445
582.20 1.952487
582.30 1.956872
582.40 1.959915
582.50 1.962941
582.60 1.96607
582.70 1.968274
582.80 1.968322
582.90 1.964764
583.00 1.956357
583.10 1.943131
583.20 1.926267
583.30 1.906469
583.40 1.882829
583.50 1.853954
583.60 1.819154
583.70 1.779266
583.80 1.736319
583.90 1.693026
584.00 1.652788
584.10 1.618706
584.20 1.59284
584.30 1.576419
584.40 1.569594
584.50 1.571752
584.60 1.58176
584.70 1.597292
584.80 1.615623
584.90 1.634175
585.00 1.649584
585.10 1.657212
585.20 1.653026
585.30 1.635142
585.40 1.604152
585.50 1.563517
585.60 1.518451
585.70 1.474464
585.80 1.436503
585.90 1.406694
586.00 1.383889
586.10 1.365671
586.20 1.348488
586.30 1.327868
586.40 1.301648
586.50 1.27101
586.60 1.239047
586.70 1.210192
586.80 1.188952
586.90 1.178396
587.00 1.179252
587.10 1.190865
587.20 1.211386
587.30 1.238682
587.40 1.271627
587.50 1.309357
587.60 1.350671
587.70 1.393762
587.80 1.435285
587.90 1.471051
588.00 1.497383
588.10 1.511934
588.20 1.513916
588.30 1.504306
588.40 1.486269
588.50 1.463317
588.60 1.43801
588.70 1.411976
588.80 1.386203
588.90 1.36187
589.00 1.34071
589.10 1.325152
589.20 1.317346
589.30 1.318411
589.40 1.328385
589.50 1.345296
589.60 1.365782
589.70 1.386052
589.80 1.402186
589.90 1.411393
590.00 1.413176
590.10 1.408983
590.20 1.40118
590.30 1.392394
590.40 1.383884
590.50 1.374908
590.60 1.363571
590.70 1.347895
590.80 1.326805
590.90 1.301038
591.00 1.273087
591.10 1.245344
591.20 1.219757
591.30 1.197434
591.40 1.177566
591.50 1.15796
591.60 1.136238
591.70 1.109713
591.80 1.077091
591.90 1.039946
592.00 1.002228
592.10 0.9687948
592.20 0.9439169
592.30 0.9303641
592.40 0.9287014
592.50 0.9380808
592.60 0.956051
592.70 0.9790618
592.80 1.003912
592.90 1.027832
593.00 1.048183
593.10 1.063568
593.20 1.074777
593.30 1.083594
593.40 1.091259
593.50 1.098871
593.60 1.107801
593.70 1.119121
593.80 1.133227
593.90 1.149765
594.00 1.168135
594.10 1.188212
594.20 1.210719
594.30 1.237192
594.40 1.269057
594.50 1.306804
594.60 1.349372
594.70 1.394146
594.80 1.438222
594.90 1.478678
595.00 1.512118
595.10 1.535623
595.20 1.548012
595.30 1.55048
595.40 1.546152
595.50 1.5384
595.60 1.52919
595.70 1.51961
595.80 1.511079
595.90 1.504918
596.00 1.501602
596.10 1.500814
596.20 1.501818
596.30 1.503376
596.40 1.504074
596.50 1.502499
596.60 1.497693
596.70 1.489308
596.80 1.477018
596.90 1.461226
597.00 1.444212
597.10 1.428645
597.20 1.415303
597.30 1.403028
597.40 1.390268
597.50 1.375431
597.60 1.356646
597.70 1.332567
597.80 1.303582
597.90 1.272291
598.00 1.242624
598.10 1.218536
598.20 1.203137
598.30 1.197398
598.40 1.199415
598.50 1.205545
598.60 1.212163
598.70 1.216774
598.80 1.21758
598.90 1.213662
599.00 1.205779
599.10 1.196293
599.20 1.187954
599.30 1.182785
599.40 1.18202
599.50 1.186527
599.60 1.197324
599.70 1.215403
599.80 1.241164
599.90 1.273739
600.00 0.7538357
600.10 1.023118
600.20 1.396359
600.30 1.813265
600.40 2.191686
600.50 2.458519
600.60 2.571693
600.70 2.543486
600.80 2.402632
600.90 2.184367
601.00 1.939805
601.10 1.726295
601.20 1.582742
601.30 1.518221
601.40 1.512941
601.50 1.526027
601.60 1.526003
601.70 1.50521
601.80 1.489045
601.90 1.508824
602.00 1.571045
602.10 1.642937
602.20 1.688906
602.30 1.691246
602.40 1.639809
602.50 1.54182
602.60 1.420054
602.70 1.295074
602.80 1.180491
602.90 1.101082
603.00 1.087079
603.10 1.13287
603.20 1.193807
603.30 1.235083
603.40 1.256481
603.50 1.280938
603.60 1.327269
603.70 1.391539
603.80 1.467597
603.90 1.553224
604.00 1.633173
604.10 1.692977
604.20 1.734457
604.30 1.755944
604.40 1.741941
604.50 1.702323
604.60 1.663016
604.70 1.645965
604.80 1.680345
604.90 1.776076
605.00 1.927069
605.10 2.135563
605.20 2.386495
605.30 2.639888
605.40 2.846091
605.50 2.964566
605.60 2.976114
605.70 2.882582
605.80 2.706647
605.90 2.475158
606.00 2.231278
606.10 2.014239
606.20 1.827521
606.30 1.674614
606.40 1.565904
606.50 1.500475
606.60 1.472456
606.70 1.489479
606.80 1.572249
606.90 1.716533
607.00 1.883131
607.10 2.03375
607.20 2.152738
607.30 2.228958
607.40 2.250801
607.50 2.215782
607.60 2.139445
607.70 2.061963
607.80 2.021442
607.90 2.035934
608.00 2.113855
608.10 2.237031
608.20 2.369915
608.30 2.500176
608.40 2.638882
608.50 2.766427
608.60 2.826066
608.70 2.787063
608.80 2.657205
608.90 2.461767
609.00 2.229456
609.10 1.98457
609.20 1.748033
609.30 1.543379
609.40 1.383236
609.50 1.262198
609.60 1.182513
609.70 1.144128
609.80 1.125049
609.90 1.121537
610.00 1.165275
610.10 1.271919
610.20 1.402613
610.30 1.516197
610.40 1.599652
610.50 1.64933
610.60 1.673598
610.70 1.687273
610.80 1.709221
610.90 1.754378
611.00 1.806059
611.10 1.829721
611.20 1.818412
611.30 1.80256
611.40 1.810305
611.50 1.855712
611.60 1.964197
611.70 2.139374
611.80 2.347457
611.90 2.534683
612.00 2.643966
612.10 2.628699
612.20 2.465252
612.30 2.183187
612.40 1.862002
612.50 1.593611
612.60 1.441764
612.70 1.411386
612.80 1.479747
612.90 1.628029
613.00 1.824129
613.10 2.025449
613.20 2.188943
613.30 2.28662
613.40 2.33414
613.50 2.382306
613.60 2.4598
613.70 2.538168
613.80 2.576391
613.90 2.556153
614.00 2.480314
614.10 2.375094
614.20 2.270683
614.30 2.167097
614.40 2.056397
614.50 1.947759
614.60 1.853571
614.70 1.787015
614.80 1.736578
614.90 1.673195
615.00 1.586477
615.10 1.506186
615.20 1.471487
615.30 1.496352
615.40 1.573682
615.50 1.674544
615.60 1.761244
615.70 1.809274
615.80 1.809993
615.90 1.773626
616.00 1.73493
616.10 1.716951
616.20 1.73271
616.30 1.799284
616.40 1.912061
616.50 2.029345
616.60 2.103925
616.70 2.126592
616.80 2.114047
616.90 2.079579
617.00 2.026273
617.10 1.9748
617.20 1.94588
617.30 1.931238
617.40 1.902672
617.50 1.837982
617.60 1.73739
617.70 1.612488
617.80 1.494166
617.90 1.42667
618.00 1.446064
618.10 1.551785
618.20 1.707789
618.30 1.879025
618.40 2.051266
618.50 2.208708
618.60 2.330757
618.70 2.409421
618.80 2.454374
618.90 2.482256
619.00 2.478035
619.10 2.414104
619.20 2.28812
619.30 2.132598
619.40 1.987557
619.50 1.870265
619.60 1.790802
619.70 1.760277
619.80 1.776924
619.90 1.826181
620.00 1.883402
620.10 1.919893
620.20 1.927159
620.30 1.905914
620.40 1.885492
620.50 1.913097
620.60 2.004537
620.70 2.143817
620.80 2.292096
620.90 2.408437
621.00 2.462783
621.10 2.427724
621.20 2.278473
621.30 2.0118
621.40 1.670407
621.50 1.323504
621.60 1.013438
621.70 0.7830481
621.80 0.6717146
621.90 0.6790112
622.00 0.785188
622.10 0.9542744
622.20 1.159863
622.30 1.393144
622.40 1.638632
622.50 1.866367
622.60 2.046669
622.70 2.170551
622.80 2.225552
622.90 2.206497
623.00 2.144033
623.10 2.059409
623.20 1.947374
623.30 1.816192
623.40 1.68939
623.50 1.596823
623.60 1.568596
623.70 1.613
623.80 1.715546
623.90 1.860625
624.00 2.028997
624.10 2.186298
624.20 2.299413
624.30 2.335072
624.40 2.267538
624.50 2.109194
624.60 1.911782
624.70 1.730433
624.80 1.605637
624.90 1.564547
625.00 1.608292
625.10 1.728497
625.20 1.912476
625.30 2.135187
625.40 2.366655
625.50 2.579191
625.60 2.775044
625.70 2.962133
625.80 3.11811
625.90 3.213074
626.00 3.22348
626.10 3.131106
626.20 2.935546
626.30 2.656537
626.40 2.329667
626.50 2.005486
626.60 1.748946
626.70 1.610921
626.80 1.608018
626.90 1.721914
627.00 1.895048
627.10 2.07917
627.20 2.254814
627.30 2.413074
627.40 2.545493
627.50 2.639283
627.60 2.693336
627.70 2.713831
627.80 2.693956
627.90 2.628911
628.00 2.527256
628.10 2.410139
628.20 2.316616
628.30 2.279256
628.40 2.299662
628.50 2.352041
628.60 2.395158
628.70 2.389721
628.80 2.317687
628.90 2.197885
629.00 2.060202
629.10 1.935626
629.20 1.868809
629.30 1.901085
629.40 2.030688
629.50 2.206817
629.60 2.336284
629.70 2.357249
629.80 2.288394
629.90 2.175099
630.00 2.076939
630.10 2.05127
630.20 2.130159
630.30 2.313637
630.40 2.583053
630.50 2.900071
630.60 3.208115
630.70 3.442896
630.80 3.574954
630.90 3.616847
631.00 3.616914
631.10 3.61593
631.20 3.621054
631.30 3.628554
631.40 3.620587
631.50 3.581837
631.60 3.510807
631.70 3.417422
631.80 3.302245
631.90 3.171331
632.00 3.043348
632.10 2.939208
632.20 2.866052
632.30 2.831506
632.40 2.859025
632.50 2.95855
632.60 3.095588
632.70 3.228738
632.80 3.337023
632.90 3.401735
633.00 3.416201
633.10 3.384483
633.20 3.321964
633.30 3.241559
633.40 3.155112
633.50 3.077464
633.60 3.021414
633.70 3.005993
633.80 3.046765
633.90 3.148493
634.00 3.306445
634.10 3.497867
634.20 3.690549
634.30 3.853775
634.40 3.954321
634.50 3.981324
634.60 3.955911
634.70 3.910712
634.80 3.874589
634.90 3.876635
635.00 3.944015
635.10 4.086011
635.20 4.272173
635.30 4.450681
635.40 4.58782
635.50 4.653305
635.60 4.602535
635.70 4.416753
635.80 4.143751
635.90 3.820441
636.00 3.458136
636.10 3.097016
636.20 2.808517
636.30 2.643206
636.40 2.60042
636.50 2.665731
636.60 2.820725
636.70 3.032174
636.80 3.249204
636.90 3.428582
637.00 3.562384
637.10 3.649719
637.20 3.651381
637.30 3.555902
637.40 3.406477
637.50 3.26158
637.60 3.160093
637.70 3.118964
637.80 3.141384
637.90 3.213735
638.00 3.340495
638.10 3.52044
638.20 3.739729
638.30 3.985342
638.40 4.235397
638.50 4.458139
638.60 4.630933
638.70 4.754664
638.80 4.834535
638.90 4.862496
639.00 4.822712
639.10 4.71886
639.20 4.583167
639.30 4.442843
639.40 4.298551
639.50 4.16401
639.60 4.067857
639.70 4.024885
639.80 4.034454
639.90 4.101904
640.00 4.224101
640.10 4.370567
640.20 4.507571
640.30 4.600437
640.40 4.626015
640.50 4.580552
640.60 4.473738
640.70 4.324649
640.80 4.155582
640.90 3.984599
641.00 3.819984
641.10 3.671444
641.20 3.560857
641.30 3.501293
641.40 3.499567
641.50 3.568962
641.60 3.71262
641.70 3.924832
641.80 4.181019
641.90 4.426455
642.00 4.597273
642.10 4.647438
642.20 4.563347
642.30 4.371684
642.40 4.139866
642.50 3.938449
642.60 3.815192
642.70 3.80282
642.80 3.909042
642.90 4.099253
643.00 4.316077
643.10 4.497886
643.20 4.596982
643.30 4.608822
643.40 4.553362
643.50 4.458919
643.60 4.359446
643.70 4.270557
643.80 4.184604
643.90 4.106835
644.00 4.050677
644.10 4.007027
644.20 3.957952
644.30 3.906025
644.40 3.862011
644.50 3.835429
644.60 3.837176
644.70 3.872112
644.80 3.948787
644.90 4.064615
645.00 4.193142
645.10 4.30443
645.20 4.380494
645.30 4.400919
645.40 4.347231
645.50 4.227283
645.60 4.075664
645.70 3.925266
645.80 3.80404
645.90 3.732524
646.00 3.723357
646.10 3.778149
646.20 3.888282
646.30 4.053156
646.40 4.275269
646.50 4.546664
646.60 4.831374
646.70 5.07977
646.80 5.257406
646.90 5.349218
647.00 5.352664
647.10 5.286232
647.20 5.178429
647.30 5.056546
647.40 4.947843
647.50 4.87629
647.60 4.854053
647.70 4.863981
647.80 4.872492
647.90 4.851825
648.00 4.789948
648.10 4.699496
648.20 4.604866
648.30 4.528451
648.40 4.491629
648.50 4.498524
648.60 4.541972
648.70 4.619566
648.80 4.719829
648.90 4.823209
649.00 4.906063
649.10 4.961762
649.20 4.996059
649.30 5.015681
649.40 5.03534
649.50 5.053237
649.60 5.053883
649.70 5.015168
649.80 4.929184
649.90 4.819057
650.00 4.707672
650.10 4.6166
650.20 4.580709
650.30 4.619067
650.40 4.728509
650.50 4.883451
650.60 5.045531
650.70 5.183131
650.80 5.277157
650.90 5.341035
651.00 5.395785
651.10 5.455365
651.20 5.525017
651.30 5.600839
651.40 5.685118
651.50 5.777617
651.60 5.861095
651.70 5.912681
651.80 5.921626
651.90 5.888316
652.00 5.825967
652.10 5.757628
652.20 5.709647
652.30 5.690933
652.40 5.695924
652.50 5.733084
652.60 5.822375
652.70 5.970883
652.80 6.165367
652.90 6.371102
653.00 6.533409
653.10 6.616829
653.20 6.610648
653.30 6.525119
653.40 6.390795
653.50 6.242428
653.60 6.110136
653.70 6.01382
653.80 5.97796
653.90 6.031767
654.00 6.184764
654.10 6.41514
654.20 6.688294
654.30 6.976534
654.40 7.26445
654.50 7.523445
654.60 7.719046
654.70 7.834927
654.80 7.869791
654.90 7.823821
655.00 7.694356
655.10 7.498307
655.20 7.267232
655.30 7.021407
655.40 6.777413
655.50 6.565282
655.60 6.433288
655.70 6.445084
655.80 6.621342
655.90 6.92447
656.00 7.303725
656.10 7.707569
656.20 8.08191
656.30 8.371495
656.40 8.534845
656.50 8.561001
656.60 8.463699
656.70 8.275696
656.80 8.03401
656.90 7.771249
657.00 7.505521
657.10 7.234071
657.20 6.974305
657.30 6.761186
657.40 6.606469
657.50 6.494212
657.60 6.394491
657.70 6.283923
657.80 6.164995
657.90 6.062198
658.00 6.004416
658.10 6.00528
658.20 6.060315
658.30 6.161668
658.40 6.299105
658.50 6.443351
658.60 6.558117
658.70 6.61977
658.80 6.622287
658.90 6.567317
659.00 6.473517
659.10 6.39525
659.20 6.380175
659.30 6.430019
659.40 6.521157
659.50 6.635451
659.60 6.763672
659.70 6.893677
659.80 6.989297
659.90 7.015916
660.00 6.970779
660.10 6.885386
660.20 6.805234
660.30 6.764394
660.40 6.778273
660.50 6.837471
660.60 6.921304
660.70 7.030349
660.80 7.173024
660.90 7.332523
661.00 7.473089
661.10 7.551469
661.20 7.547524
661.30 7.470993
661.40 7.342022
661.50 7.181637
661.60 7.015908
661.70 6.887361
661.80 6.833463
661.90 6.857408
662.00 6.942172
662.10 7.040566
662.20 7.095473
662.30 7.076141
662.40 6.976459
662.50 6.829581
662.60 6.691408
662.70 6.599871
662.80 6.577728
662.90 6.648652
663.00 6.819277
663.10 7.052309
663.20 7.283204
663.30 7.464254
663.40 7.568403
663.50 7.592035
663.60 7.549218
663.70 7.466688
663.80 7.389134
663.90 7.341646
664.00 7.335663
664.10 7.395722
664.20 7.5307
664.30 7.712939
664.40 7.889901
664.50 8.029265
664.60 8.130449
664.70 8.204076
664.80 8.251992
664.90 8.268462
665.00 8.259623
665.10 8.233574
665.20 8.188669
665.30 8.129296
665.40 8.064659
665.50 7.995309
665.60 7.91958
665.70 7.832738
665.80 7.735517
665.90 7.639175
666.00 7.550087
666.10 7.466101
666.20 7.394267
666.30 7.348921
666.40 7.333512
666.50 7.351742
666.60 7.420651
666.70 7.555194
666.80 7.749308
666.90 7.971465
667.00 8.175106
667.10 8.329739
667.20 8.426091
667.30 8.465882
667.40 8.459535
667.50 8.418309
667.60 8.348177
667.70 8.257325
667.80 8.172668
667.90 8.123499
668.00 8.108634
668.10 8.107728
668.20 8.109566
668.30 8.118449
668.40 8.148335
668.50 8.20123
668.60 8.260237
668.70 8.302443
668.80 8.311911
668.90 8.277209
669.00 8.199552
669.10 8.090538
669.20 7.960457
669.30 7.829924
669.40 7.729249
669.50 7.685879
669.60 7.71571
669.70 7.809135
669.80 7.932679
669.90 8.055136
670.00 8.148293
670.10 8.176596
670.20 8.127737
670.30 8.022285
670.40 7.889988
670.50 7.769956
670.60 7.699894
670.70 7.704786
670.80 7.792537
670.90 7.957364
671.00 8.176957
671.10 8.418355
671.20 8.653223
671.30 8.853097
671.40 8.997382
671.50 9.076454
671.60 9.079517
671.70 9.012808
671.80 8.910454
671.90 8.796314
672.00 8.685833
672.10 8.594179
672.20 8.530646
672.30 8.495469
672.40 8.4781
672.50 8.466052
672.60 8.448722
672.70 8.41034
672.80 8.338702
672.90 8.2413
673.00 8.13345
673.10 8.03294
673.20 7.956356
673.30 7.928818
673.40 7.968759
673.50 8.070312
673.60 8.216941
673.70 8.392375
673.80 8.578572
673.90 8.757542
674.00 8.911337
674.10 9.02874
674.20 9.112697
674.30 9.163699
674.40 9.16962
674.50 9.123
674.60 9.037607
674.70 8.943981
674.80 8.871492
674.90 8.83604
675.00 8.841261
675.10 8.89059
675.20 8.992081
675.30 9.128525
675.40 9.253022
675.50 9.31632
675.60 9.283924
675.70 9.158832
675.80 8.991907
675.90 8.8344
676.00 8.706106
676.10 8.61336
676.20 8.573379
676.30 8.610437
676.40 8.74143
676.50 8.948306
676.60 9.170807
676.70 9.362512
676.80 9.51643
676.90 9.638751
677.00 9.722366
677.10 9.743722
677.20 9.697197
677.30 9.614354
677.40 9.543623
677.50 9.51555
677.60 9.523251
677.70 9.537998
677.80 9.532845
677.90 9.502624
678.00 9.459942
678.10 9.409228
678.20 9.339045
678.30 9.239127
678.40 9.124421
678.50 9.02877
678.60 8.959698
678.70 8.89852
678.80 8.835828
678.90 8.784516
679.00 8.765606
679.10 8.784923
679.20 8.831633
679.30 8.886682
679.40 8.933208
679.50 8.959542
679.60 8.958133
679.70 8.937869
679.80 8.908682
679.90 8.869793
680.00 8.821112
680.10 8.764775
680.20 8.701461
680.30 8.631015
680.40 8.562735
680.50 8.525308
680.60 8.551438
680.70 8.645951
680.80 8.779969
680.90 8.911806
681.00 9.009223
681.10 9.047432
681.20 9.02312
681.30 8.952585
681.40 8.857258
681.50 8.764949
681.60 8.697434
681.70 8.665051
681.80 8.670346
681.90 8.707017
682.00 8.752085
682.10 8.788253
682.20 8.831561
682.30 8.910275
682.40 9.02967
682.50 9.167768
682.60 9.29001
682.70 9.365814
682.80 9.384832
682.90 9.355691
683.00 9.283385
683.10 9.172047
683.20 9.033171
683.30 8.872557
683.40 8.703655
683.50 8.549975
683.60 8.424567
683.70 8.332496
683.80 8.277423
683.90 8.263234
684.00 8.292996
684.10 8.36033
684.20 8.4468
684.30 8.525505
684.40 8.576191
684.50 8.582809
684.60 8.534749
684.70 8.441304
684.80 8.318674
684.90 8.171978
685.00 7.997704
685.10 7.808354
685.20 7.635647
685.30 7.510584
685.40 7.441924
685.50 7.424711
685.60 7.446681
685.70 7.484155
685.80 7.529894
685.90 7.595591
686.00 7.676639
686.10 7.752086
686.20 7.81099
686.30 7.852342
686.40 7.880074
686.50 7.893668
686.60 7.895347
686.70 7.893989
686.80 7.893974
686.90 7.899277
687.00 7.920375
687.10 7.968406
687.20 8.037142
687.30 8.109442
687.40 8.178434
687.50 8.243789
687.60 8.286628
687.70 8.285604
687.80 8.227596
687.90 8.113115
688.00 7.956882
688.10 7.785428
688.20 7.644617
688.30 7.581093
688.40 7.621882
688.50 7.769154
688.60 8.002907
688.70 8.275406
688.80 8.511369
688.90 8.636807
689.00 8.61628
689.10 8.443261
689.20 8.140599
689.30 7.761836
689.40 7.378213
689.50 7.051206
689.60 6.828966
689.70 6.743208
689.80 6.778578
689.90 6.89432
690.00 7.045383
690.10 7.189568
690.20 7.306331
690.30 7.388963
690.40 7.437745
690.50 7.463121
690.60 7.477456
690.70 7.488313
690.80 7.493906
690.90 7.498185
691.00 7.493139
691.10 7.4578
691.20 7.405912
691.30 7.359725
691.40 7.317087
691.50 7.272244
691.60 7.231371
691.70 7.207579
691.80 7.215455
691.90 7.282944
692.00 7.442065
692.10 7.689847
692.20 7.970946
692.30 8.215371
692.40 8.385308
692.50 8.48379
692.60 8.520707
692.70 8.507736
692.80 8.476683
692.90 8.455881
693.00 8.465185
693.10 8.516433
693.20 8.599348
693.30 8.690887
693.40 8.755467
693.50 8.765475
693.60 8.747075
693.70 8.742565
693.80 8.762047
693.90 8.799986
694.00 8.859454
694.10 8.955432
694.20 9.106229
694.30 9.338689
694.40 9.670879
694.50 10.0822
694.60 10.5172
694.70 10.8908
694.80 11.11273
694.90 11.13276
695.00 10.93438
695.10 10.54177
695.20 10.04315
695.30 9.546549
695.40 9.139205
695.50 8.884929
695.60 8.807889
695.70 8.884216
695.80 9.057373
695.90 9.266286
696.00 9.456389
696.10 9.599586
696.20 9.7128
696.30 9.828731
696.40 9.973228
696.50 10.14601
696.60 10.31459
696.70 10.44338
696.80 10.50549
696.90 10.48726
697.00 10.40629
697.10 10.28732
697.20 10.13877
697.30 9.979328
697.40 9.84446
697.50 9.756327
697.60 9.708084
697.70 9.674468
697.80 9.628231
697.90 9.561045
698.00 9.482018
698.10 9.40999
698.20 9.37412
698.30 9.387576
698.40 9.438184
698.50 9.515108
698.60 9.617529
698.70 9.730653
698.80 9.821522
698.90 9.864991
699.00 9.844292
699.10 9.751486
699.20 9.609041
699.30 9.466772
699.40 9.369838
699.50 9.338467
699.60 9.372675
699.70 9.469786
699.80 9.620771
699.90 9.794751
700.00 9.957211
700.10 10.08709
700.20 10.17971
700.30 10.23993
700.40 10.28093
700.50 10.32788
700.60 10.39313
700.70 10.4629
700.80 10.52089
700.90 10.55703
701.00 10.56332
701.10 10.53858
701.20 10.48339
701.30 10.41433
701.40 10.36512
701.50 10.35531
701.60 10.39537
701.70 10.49162
701.80 10.64313
701.90 10.84012
702.00 11.05677
702.10 11.25823
702.20 11.41267
702.30 11.507
702.40 11.54753
702.50 11.54384
702.60 11.52467
702.70 11.53074
702.80 11.56867
702.90 11.6412
703.00 11.75849
703.10 11.91645
703.20 12.09707
703.30 12.26864
703.40 12.40916
703.50 12.52482
703.60 12.64651
703.70 12.80497
703.80 13.0107
703.90 13.26103
704.00 13.52966
704.10 13.76711
704.20 13.93866
704.30 14.02809
704.40 14.03712
704.50 13.98683
704.60 13.90251
704.70 13.81068
704.80 13.73166
704.90 13.6673
705.00 13.60352
705.10 13.51546
705.20 13.38204
705.30 13.19109
705.40 12.95238
705.50 12.70473
705.60 12.49465
705.70 12.3569
705.80 12.29923
705.90 12.30325
706.00 12.34704
706.10 12.42577
706.20 12.53689
706.30 12.66321
706.40 12.77361
706.50 12.84046
706.60 12.85791
706.70 12.85282
706.80 12.85077
706.90 12.85827
707.00 12.88092
707.10 12.91377
707.20 12.94467
707.30 12.97096
707.40 13.0002
707.50 13.0229
707.60 13.02342
707.70 12.99278
707.80 12.9216
707.90 12.80979
708.00 12.67467
708.10 12.52995
708.20 12.37473
708.30 12.20837
708.40 12.03135
708.50 11.86529
708.60 11.74664
708.70 11.69518
708.80 11.70157
708.90 11.74912
709.00 11.82123
709.10 11.90556
709.20 12.00231
709.30 12.10452
709.40 12.19161
709.50 12.23735
709.60 12.2294
709.70 12.18636
709.80 12.15247
709.90 12.16612
710.00 12.23613
710.10 12.3494
710.20 12.49194
710.30 12.64721
710.40 12.79553
710.50 12.92178
710.60 13.00674
710.70 13.03612
710.80 13.00012
710.90 12.9193
711.00 12.84804
711.10 12.81343
711.20 12.80725
711.30 12.82203
711.40 12.85875
711.50 12.92019
711.60 13.00411
711.70 13.10516
711.80 13.21105
711.90 13.30278
712.00 13.37389
712.10 13.4331
712.20 13.48486
712.30 13.50717
712.40 13.48754
712.50 13.44571
712.60 13.39936
712.70 13.35164
712.80 13.31072
712.90 13.28551
713.00 13.27288
713.10 13.26431
713.20 13.25562
713.30 13.24703
713.40 13.23223
713.50 13.19719
713.60 13.14151
713.70 13.083
713.80 13.02935
713.90 12.98278
714.00 12.96041
714.10 12.98418
714.20 13.05601
714.30 13.16548
714.40 13.30471
714.50 13.45738
714.60 13.59631
714.70 13.70181
714.80 13.77301
714.90 13.82509
715.00 13.87007
715.10 13.91114
715.20 13.95652
715.30 14.00969
715.40 14.05683
715.50 14.0833
715.60 14.08485
715.70 14.06388
715.80 14.03447
715.90 14.01764
716.00 14.02828
716.10 14.06954
716.20 14.14465
716.30 14.25696
716.40 14.40579
716.50 14.57499
716.60 14.72164
716.70 14.8124
716.80 14.84978
716.90 14.85749
717.00 14.85813
717.10 14.86332
717.20 14.87606
717.30 14.88695
717.40 14.88682
717.50 14.87692
717.60 14.84433
717.70 14.76657
717.80 14.64392
717.90 14.5109
718.00 14.4166
718.10 14.39451
718.20 14.44509
718.30 14.53778
718.40 14.64303
718.50 14.75007
718.60 14.85337
718.70 14.94931
718.80 15.03921
718.90 15.12308
719.00 15.20573
719.10 15.29069
719.20 15.36932
719.30 15.42108
719.40 15.42254
719.50 15.38063
719.60 15.32896
719.70 15.29693
719.80 15.30805
719.90 15.37941
720.00 15.51487
720.10 15.69688
720.20 15.8862
720.30 16.03855
720.40 16.12319
720.50 16.13841
720.60 16.09747
720.70 16.02182
720.80 15.95284
720.90 15.91375
721.00 15.89955
721.10 15.9113
721.20 15.95919
721.30 16.03868
721.40 16.12736
721.50 16.21017
721.60 16.28707
721.70 16.36356
721.80 16.44091
721.90 16.51115
722.00 16.56945
722.10 16.61848
722.20 16.64554
722.30 16.63468
722.40 16.59894
722.50 16.56811
722.60 16.56339
722.70 16.5997
722.80 16.69015
722.90 16.8341
723.00 17.00399
723.10 17.16024
723.20 17.27657
723.30 17.33814
723.40 17.35491
723.50 17.37212
723.60 17.44871
723.70 17.62309
723.80 17.86461
723.90 18.10805
724.00 18.33992
724.10 18.55215
724.20 18.69497
724.30 18.72579
724.40 18.65064
724.50 18.50374
724.60 18.31316
724.70 18.12039
724.80 17.96771
724.90 17.86835
725.00 17.8132
725.10 17.79437
725.20 17.84203
725.30 17.97874
725.40 18.15038
725.50 18.30629
725.60 18.44253
725.70 18.57793
725.80 18.72384
725.90 18.86904
726.00 18.9946
726.10 19.07264
726.20 19.07682
726.30 18.99156
726.40 18.82758
726.50 18.61687
726.60 18.39788
726.70 18.21482
726.80 18.10978
726.90 18.117
727.00 18.25447
727.10 18.50343
727.20 18.83659
727.30 19.20658
727.40 19.5365
727.50 19.76031
727.60 19.84816
727.70 19.80734
727.80 19.68125
727.90 19.55115
728.00 19.48611
728.10 19.51648
728.20 19.63752
728.30 19.79513
728.40 19.92348
728.50 19.97179
728.60 19.88833
728.70 19.66362
728.80 19.35433
728.90 19.04573
729.00 18.81979
729.10 18.74691
729.20 18.85277
729.30 19.08567
729.40 19.37302
729.50 19.65839
729.60 19.89162
729.70 20.05749
729.80 20.16272
729.90 20.2143
730.00 20.23251
730.10 20.23554
730.20 20.24279
730.30 20.26932
730.40 20.30617
730.50 20.35597
730.60 20.44993
730.70 20.6164
730.80 20.8644
730.90 21.18631
731.00 21.55955
731.10 21.95471
731.20 22.35908
731.30 22.73691
731.40 23.00803
731.50 23.1331
731.60 23.12169
731.70 23.00794
731.80 22.84908
731.90 22.68049
732.00 22.50796
732.10 22.33834
732.20 22.19196
732.30 22.10822
732.40 22.12817
732.50 22.23765
732.60 22.34101
732.70 22.35684
732.80 22.26661
732.90 22.08173
733.00 21.83366
733.10 21.56148
733.20 21.32009
733.30 21.18451
733.40 21.23729
733.50 21.54218
733.60 22.11045
733.70 22.85105
733.80 23.60791
733.90 24.24115
734.00 24.65594
734.10 24.80134
734.20 24.6729
734.30 24.31212
734.40 23.77782
734.50 23.15737
734.60 22.56101
734.70 22.07
734.80 21.70978
734.90 21.47579
735.00 21.35016
735.10 21.33004
735.20 21.41057
735.30 21.55526
735.40 21.73958
735.50 21.95031
735.60 22.15524
735.70 22.30905
735.80 22.39653
735.90 22.41426
736.00 22.36464
736.10 22.28977
736.20 22.25036
736.30 22.28087
736.40 22.40724
736.50 22.63356
736.60 22.91245
736.70 23.19995
736.80 23.44493
736.90 23.57665
737.00 23.55813
737.10 23.39915
737.20 23.12749
737.30 22.78094
737.40 22.39906
737.50 22.01523
737.60 21.67335
737.70 21.43342
737.80 21.31119
737.90 21.28252
738.00 21.33649
738.10 21.44572
738.20 21.57432
738.30 21.69914
738.40 21.80912
738.50 21.89099
738.60 21.94587
738.70 22.01519
738.80 22.12681
738.90 22.26337
739.00 22.39104
739.10 22.46579
739.20 22.43207
739.30 22.25859
739.40 21.95545
739.50 21.57926
739.60 21.21954
739.70 20.97113
739.80 20.89876
739.90 21.01578
740.00 21.28759
740.10 21.62573
740.20 21.9315
740.30 22.14508
740.40 22.23674
740.50 22.20393
740.60 22.07926
740.70 21.89736
740.80 21.69388
740.90 21.50376
741.00 21.33448
741.10 21.18295
741.20 21.06215
741.30 20.99127
741.40 20.9729
741.50 21.00558
741.60 21.07971
741.70 21.17075
741.80 21.24593
741.90 21.27643
742.00 21.24476
742.10 21.15368
742.20 21.02965
742.30 20.9038
742.40 20.81745
742.50 20.81545
742.60 20.90163
742.70 21.04699
742.80 21.22089
742.90 21.38028
743.00 21.48363
743.10 21.50872
743.20 21.44979
743.30 21.30927
743.40 21.10533
743.50 20.88539
743.60 20.71519
743.70 20.64385
743.80 20.67779
743.90 20.79041
744.00 20.94295
744.10 21.08696
744.20 21.15655
744.30 21.10425
744.40 20.92019
744.50 20.61512
744.60 20.22616
744.70 19.82345
744.80 19.49385
744.90 19.30459
745.00 19.26785
745.10 19.34952
745.20 19.4982
745.30 19.64093
745.40 19.7124
745.50 19.69863
745.60 19.6195
745.70 19.50687
745.80 19.40795
745.90 19.37687
746.00 19.44609
746.10 19.61281
746.20 19.84009
746.30 20.06776
746.40 20.24247
746.50 20.34566
746.60 20.39288
746.70 20.42661
746.80 20.48365
746.90 20.56229
747.00 20.66016
747.10 20.781
747.20 20.90426
747.30 20.99778
747.40 21.04314
747.50 21.02507
747.60 20.95492
747.70 20.89327
747.80 20.90351
747.90 21.01048
748.00 21.20996
748.10 21.47728
748.20 21.74826
748.30 21.93845
748.40 21.9957
748.50 21.91876
748.60 21.72933
748.70 21.456
748.80 21.1354
748.90 20.82996
749.00 20.60858
749.10 20.497
749.20 20.48378
749.30 20.53865
749.40 20.61184
749.50 20.65666
749.60 20.67448
749.70 20.70114
749.80 20.74651
749.90 20.80196
750.00 20.88109
750.10 20.99965
750.20 21.15022
750.30 21.31255
750.40 21.45651
750.50 21.55039
750.60 21.57625
750.70 21.5309
750.80 21.43094
750.90 21.30895
751.00 21.19164
751.10 21.10843
751.20 21.10465
751.30 21.19566
751.40 21.35158
751.50 21.51903
751.60 21.64738
751.70 21.721
751.80 21.7571
751.90 21.79383
752.00 21.86026
752.10 21.95581
752.20 22.07348
752.30 22.20729
752.40 22.35147
752.50 22.48379
752.60 22.56054
752.70 22.54485
752.80 22.42231
752.90 22.21193
753.00 21.96171
753.10 21.71974
753.20 21.5187
753.30 21.37189
753.40 21.2826
753.50 21.26676
753.60 21.32114
753.70 21.4043
753.80 21.46628
753.90 21.47897
754.00 21.43382
754.10 21.34112
754.20 21.23306
754.30 21.13935
754.40 21.06998
754.50 21.01106
754.60 20.9432
754.70 20.85395
754.80 20.74633
754.90 20.6453
755.00 20.58478
755.10 20.60114
755.20 20.71635
755.30 20.90736
755.40 21.12092
755.50 21.31541
755.60 21.46074
755.70 21.5408
755.80 21.56491
755.90 21.55111
756.00 21.50792
756.10 21.4406
756.20 21.35516
756.30 21.2543
756.40 21.1314
756.50 20.99721
756.60 20.90337
756.70 20.8954
756.80 20.9839
756.90 21.14473
757.00 21.34364
757.10 21.53265
757.20 21.65287
757.30 21.67865
757.40 21.62256
757.50 21.52282
757.60 21.42146
757.70 21.35298
757.80 21.35285
757.90 21.42266
758.00 21.51885
758.10 21.60048
758.20 21.63437
758.30 21.58645
758.40 21.42807
758.50 21.15516
758.60 20.78848
758.70 20.35883
758.80 19.89698
758.90 19.4239
759.00 18.97085
759.10 18.57768
759.20 18.28021
759.30 18.1198
759.40 18.11324
759.50 18.23201
759.60 18.43829
759.70 18.7
759.80 18.98508
759.90 19.25475
760.00 19.44614
760.10 19.50662
760.20 19.42847
760.30 19.23334
760.40 18.96683
760.50 18.68551
760.60 18.42611
760.70 18.1788
760.80 17.91207
760.90 17.62937
761.00 17.36169
761.10 17.13755
761.20 16.97044
761.30 16.87441
761.40 16.88022
761.50 16.98085
761.60 17.13288
761.70 17.29855
761.80 17.41509
761.90 17.40699
762.00 17.24449
762.10 16.95655
762.20 16.61248
762.30 16.28144
762.40 15.99697
762.50 15.75145
762.60 15.50759
762.70 15.2291
762.80 14.89223
762.90 14.49675
763.00 14.06059
763.10 13.61049
763.20 13.17348
763.30 12.77133
763.40 12.42113
763.50 12.12882
763.60 11.89862
763.70 11.71224
763.80 11.53019
763.90 11.31685
764.00 11.05482
764.10 10.73813
764.20 10.37437
764.30 9.984633
764.40 9.585816
764.50 9.182755
764.60 8.790811
764.70 8.445754
764.80 8.158858
764.90 7.909979
765.00 7.667773
765.10 7.40505
765.20 7.106207
765.30 6.760155
765.40 6.361254
765.50 5.919208
765.60 5.454314
765.70 4.992256
765.80 4.560831
765.90 4.177593
766.00 3.859059
766.10 3.606049
766.20 3.409015
766.30 3.264795
766.40 3.154192
766.50 3.067214
766.60 3.021248
766.70 3.042352
766.80 3.150984
766.90 3.347624
767.00 3.615805
767.10 3.931763
767.20 4.271686
767.30 4.622949
767.40 4.973375
767.50 5.303519
767.60 5.604496
767.70 5.877428
767.80 6.133361
767.90 6.391127
768.00 6.66394
768.10 6.95073
768.20 7.235527
768.30 7.497136
768.40 7.707673
768.50 7.831887
768.60 7.844944
768.70 7.748852
768.80 7.572562
768.90 7.359854
769.00 7.140562
769.10 6.914946
769.20 6.675855
769.30 6.414627
769.40 6.125158
769.50 5.809842
769.60 5.475647
769.70 5.13252
769.80 4.804084
769.90 4.529942
770.00 4.345704
770.10 4.264112
770.20 4.27332
770.30 4.359989
770.40 4.511908
770.50 4.72503
770.60 5.019723
770.70 5.447467
770.80 6.036321
770.90 6.747995
771.00 7.537181
771.10 8.360588
771.20 9.161113
771.30 9.849293
771.40 10.32661
771.50 10.53662
771.60 10.47728
771.70 10.21089
771.80 9.874072
771.90 9.647937
772.00 9.667185
772.10 9.95965
772.20 10.49218
772.30 11.23568
772.40 12.11307
772.50 12.99468
772.60 13.74286
772.70 14.28138
772.80 14.61687
772.90 14.79017
773.00 14.86138
773.10 14.88525
773.20 14.89226
773.30 14.90525
773.40 14.9471
773.50 15.03969
773.60 15.19149
773.70 15.38382
773.80 15.59722
773.90 15.82212
774.00 16.05852
774.10 16.30654
774.20 16.54608
774.30 16.75482
774.40 16.93662
774.50 17.10902
774.60 17.28052
774.70 17.46343
774.80 17.66439
774.90 17.86648
775.00 18.05722
775.10 18.20703
775.20 18.28709
775.30 18.30546
775.40 18.28788
775.50 18.25915
775.60 18.24724
775.70 18.27858
775.80 18.34668
775.90 18.41879
776.00 18.47909
776.10 18.51449
776.20 18.51122
776.30 18.47796
776.40 18.43125
776.50 18.42109
776.60 18.49908
776.70 18.67886
776.80 18.95167
776.90 19.29241
777.00 19.65869
777.10 19.99044
777.20 20.22612
777.30 20.33137
777.40 20.28656
777.50 20.08851
777.60 19.80489
777.70 19.5328
777.80 19.34613
777.90 19.29821
778.00 19.39479
778.10 19.59031
778.20 19.81698
778.30 20.00768
778.40 20.11377
778.50 20.12218
778.60 20.06261
778.70 19.99934
778.80 20.01866
778.90 20.18544
779.00 20.48044
779.10 20.83053
779.20 21.14194
779.30 21.30945
779.40 21.23617
779.50 20.85173
779.60 20.11701
779.70 19.05086
779.80 17.76873
779.90 16.45632
780.00 15.33429
780.10 14.59629
780.20 14.36838
780.30 14.68792
780.40 15.49294
780.50 16.63708
780.60 17.92292
780.70 19.11899
780.80 20.0431
780.90 20.61179
781.00 20.8405
781.10 20.82706
781.20 20.68877
781.30 20.55351
781.40 20.53573
781.50 20.71544
781.60 21.1144
781.70 21.66858
781.80 22.2687
781.90 22.81137
782.00 23.23055
782.10 23.48979
782.20 23.563
782.30 23.47011
782.40 23.25878
782.50 22.97279
782.60 22.65724
782.70 22.34813
782.80 22.07664
782.90 21.85613
783.00 21.67358
783.10 21.55342
783.20 21.55413
783.30 21.69291
783.40 21.91548
783.50 22.18083
783.60 22.48797
783.70 22.82085
783.80 23.1623
783.90 23.50523
784.00 23.86692
784.10 24.26743
784.20 24.69965
784.30 25.14874
784.40 25.60141
784.50 26.00905
784.60 26.26825
784.70 26.31819
784.80 26.22551
784.90 26.09686
785.00 25.95096
785.10 25.77682
785.20 25.61486
785.30 25.52294
785.40 25.51803
785.50 25.5743
785.60 25.67418
785.70 25.80161
785.80 25.93895
785.90 26.07063
786.00 26.2013
786.10 26.33028
786.20 26.38462
786.30 26.27815
786.40 26.0609
786.50 25.85065
786.60 25.70991
786.70 25.64087
786.80 25.61225
786.90 25.59103
787.00 25.51204
787.10 25.30868
787.20 24.96438
787.30 24.52229
787.40 24.06976
787.50 23.70143
787.60 23.51544
787.70 23.60559
787.80 23.98171
787.90 24.566
788.00 25.23836
788.10 25.86359
788.20 26.34121
788.30 26.62096
788.40 26.72862
788.50 26.73025
788.60 26.65606
788.70 26.53769
788.80 26.42554
788.90 26.3709
789.00 26.40432
789.10 26.4896
789.20 26.57217
789.30 26.60991
789.40 26.58856
789.50 26.515
789.60 26.38262
789.70 26.18482
789.80 25.91047
789.90 25.5645
790.00 25.20359
790.10 24.89368
790.20 24.67721
790.30 24.57342
790.40 24.58833
790.50 24.73121
790.60 24.97529
790.70 25.24434
790.80 25.47306
790.90 25.65929
791.00 25.82099
791.10 25.97526
791.20 26.09625
791.30 26.15723
791.40 26.16823
791.50 26.13112
791.60 26.06657
791.70 25.98334
791.80 25.86671
791.90 25.70926
792.00 25.5309
792.10 25.37773
792.20 25.26276
792.30 25.15187
792.40 25.01916
792.50 24.86229
792.60 24.74095
792.70 24.73324
792.80 24.89049
792.90 25.24162
793.00 25.76303
793.10 26.40886
793.20 27.12405
793.30 27.81916
793.40 28.38196
793.50 28.7135
793.60 28.7602
793.70 28.53673
793.80 28.11135
793.90 27.5613
794.00 26.95087
794.10 26.32751
794.20 25.69778
794.30 25.03546
794.40 24.31134
794.50 23.5333
794.60 22.75792
794.70 22.08471
794.80 21.63709
794.90 21.53161
795.00 21.84341
795.10 22.55761
795.20 23.56849
795.30 24.72633
795.40 25.8774
795.50 26.86236
795.60 27.56588
795.70 27.95403
795.80 28.08272
795.90 28.09183
796.00 28.08423
796.10 28.07522
796.20 28.08529
796.30 28.15427
796.40 28.28662
796.50 28.44759
796.60 28.5926
796.70 28.689
796.80 28.71964
796.90 28.69259
797.00 28.62328
797.10 28.53961
797.20 28.44998
797.30 28.31506
797.40 28.15314
797.50 28.05361
797.60 28.06509
797.70 28.15411
797.80 28.27755
797.90 28.41358
798.00 28.54369
798.10 28.63996
798.20 28.66349
798.30 28.59433
798.40 28.44492
798.50 28.24608
798.60 28.04599
798.70 27.9197
798.80 27.90546
798.90 27.96902
799.00 28.0897
799.10 28.2851
799.20 28.53928
799.30 28.81896
799.40 29.0789
799.50 29.27486
799.60 29.40261
799.70 29.47885
799.80 29.54589
799.90 29.64191
800.00 29.78299
800.10 29.95653
800.20 30.14366
800.30 30.34782
800.40 30.52763
800.50 30.62993
800.60 30.64355
800.70 30.57147
800.80 30.45962
800.90 30.38817
801.00 30.42454
801.10 30.60884
801.20 30.90853
801.30 31.23769
801.40 31.52106
801.50 31.69871
801.60 31.73323
801.70 31.63151
801.80 31.44613
801.90 31.23051
802.00 31.04257
802.10 30.957
802.20 31.01614
802.30 31.24771
802.40 31.67109
802.50 32.2532
802.60 32.94479
802.70 33.68742
802.80 34.39269
802.90 34.98414
803.00 35.424
803.10 35.69014
803.20 35.7657
803.30 35.65519
803.40 35.38909
803.50 35.02563
803.60 34.65243
803.70 34.33387
803.80 34.09043
803.90 33.93681
804.00 33.89513
804.10 34.00267
804.20 34.26214
804.30 34.60808
804.40 34.94068
804.50 35.18574
804.60 35.30769
804.70 35.33054
804.80 35.36462
804.90 35.52805
805.00 35.88238
805.10 36.43779
805.20 37.1615
805.30 37.98875
805.40 38.8143
805.50 39.51114
805.60 40.00127
805.70 40.23603
805.80 40.20834
805.90 39.99032
806.00 39.69863
806.10 39.42706
806.20 39.18764
806.30 38.96646
806.40 38.78872
806.50 38.68787
806.60 38.68492
806.70 38.78728
806.80 38.99703
806.90 39.31307
807.00 39.69937
807.10 40.13698
807.20 40.64659
807.30 41.21385
807.40 41.78048
807.50 42.29132
807.60 42.70602
807.70 43.00634
807.80 43.19612
807.90 43.31303
808.00 43.41461
808.10 43.54604
808.20 43.72198
808.30 43.92659
808.40 44.14471
808.50 44.3387
808.60 44.4281
808.70 44.35033
808.80 44.10188
808.90 43.73129
809.00 43.32779
809.10 42.9782
809.20 42.74641
809.30 42.66421
809.40 42.70935
809.50 42.82537
809.60 42.95306
809.70 43.04138
809.80 43.07039
809.90 43.07292
810.00 43.11336
810.10 43.23717
810.20 43.47083
810.30 43.8151
810.40 44.23154
810.50 44.65945
810.60 45.02616
810.70 45.26603
810.80 45.35575
810.90 45.33487
811.00 45.28107
811.10 45.26546
811.20 45.32501
811.30 45.4779
811.40 45.73395
811.50 46.10188
811.60 46.59033
811.70 47.18179
811.80 47.80045
811.90 48.33172
812.00 48.67624
812.10 48.7711
812.20 48.63422
812.30 48.34529
812.40 48.00979
812.50 47.76049
812.60 47.7117
812.70 47.91206
812.80 48.33097
812.90 48.87877
813.00 49.42268
813.10 49.8343
813.20 50.07221
813.30 50.21123
813.40 50.37671
813.50 50.67731
813.60 51.14161
813.70 51.69707
813.80 52.21129
813.90 52.52347
814.00 52.49704
814.10 52.08069
814.20 51.32212
814.30 50.36611
814.40 49.37917
814.50 48.50889
814.60 47.90151
814.70 47.64781
814.80 47.73936
814.90 48.07553
815.00 48.53189
815.10 49.01945
815.20 49.49571
815.30 49.95043
815.40 50.3885
815.50 50.80528
815.60 51.18903
815.70 51.4973
815.80 51.6975
815.90 51.81706
816.00 51.91021
816.10 52.0307
816.20 52.22447
816.30 52.49317
816.40 52.78956
816.50 53.07476
816.60 53.33659
816.70 53.57022
816.80 53.77127
816.90 53.96693
817.00 54.1929
817.10 54.49465
817.20 54.9167
817.30 55.44113
817.40 55.94954
817.50 56.25306
817.60 56.17594
817.70 55.64601
817.80 54.66391
817.90 53.24376
818.00 51.42719
818.10 49.33863
818.20 47.2001
818.30 45.29126
818.40 43.88573
818.50 43.15294
818.60 43.12858
818.70 43.71101
818.80 44.68872
818.90 45.7569
819.00 46.56749
819.10 46.83099
819.20 46.41835
819.30 45.39335
819.40 43.97799
819.50 42.51313
819.60 41.3618
819.70 40.78515
819.80 40.89537
819.90 41.7027
820.00 43.12024
820.10 44.94429
820.20 46.89645
820.30 48.71224
820.40 50.22503
820.50 51.38159
820.60 52.20051
820.70 52.74039
820.80 53.09641
820.90 53.3545
821.00 53.5453
821.10 53.66035
821.20 53.71076
821.30 53.70925
821.40 53.64557
821.50 53.51883
821.60 53.36682
821.70 53.27727
821.80 53.32087
821.90 53.52013
822.00 53.84963
822.10 54.24162
822.20 54.61454
822.30 54.90641
822.40 55.133
822.50 55.35862
822.60 55.62041
822.70 55.90321
822.80 56.19126
822.90 56.49984
823.00 56.81463
823.10 57.08964
823.20 57.27626
823.30 57.34761
823.40 57.33535
823.50 57.31862
823.60 57.36382
823.70 57.49451
823.80 57.69053
823.90 57.90205
824.00 58.08828
824.10 58.25544
824.20 58.42242
824.30 58.62778
824.40 58.9508
824.50 59.4561
824.60 60.15917
824.70 60.963
824.80 61.67545
824.90 62.1109
825.00 62.17609
825.10 61.87313
825.20 61.25697
825.30 60.44259
825.40 59.60136
825.50 58.90551
825.60 58.50738
825.70 58.4811
825.80 58.76743
825.90 59.21755
826.00 59.67813
826.10 60.06313
826.20 60.34981
826.30 60.53961
826.40 60.63383
826.50 60.65301
826.60 60.66604
826.70 60.74473
826.80 60.89841
826.90 61.07971
827.00 61.20041
827.10 61.20304
827.20 61.11778
827.30 61.03288
827.40 61.03134
827.50 61.15848
827.60 61.4234
827.70 61.77742
827.80 62.12593
827.90 62.36457
828.00 62.3967
828.10 62.19302
828.20 61.77233
828.30 61.19381
828.40 60.59582
828.50 60.10899
828.60 59.77717
828.70 59.5643
828.80 59.39443
828.90 59.18634
829.00 58.89404
829.10 58.53503
829.20 58.17553
829.30 57.87861
829.40 57.70587
829.50 57.68659
829.60 57.81739
829.70 58.06962
829.80 58.34135
829.90 58.47685
830.00 58.37549
830.10 58.02268
830.20 57.45562
830.30 56.77024
830.40 56.06531
830.50 55.42488
830.60 54.9307
830.70 54.66072
830.80 54.65371
830.90 54.88799
831.00 55.32639
831.10 55.90149
831.20 56.51114
831.30 57.08562
831.40 57.58599
831.50 57.98102
831.60 58.25563
831.70 58.42867
831.80 58.55872
831.90 58.69527
832.00 58.84344
832.10 58.99431
832.20 59.11965
832.30 59.17006
832.40 59.08844
832.50 58.86424
832.60 58.55257
832.70 58.2275
832.80 57.96569
832.90 57.841
833.00 57.91872
833.10 58.19555
833.20 58.58218
833.30 58.98518
833.40 59.34607
833.50 59.63443
833.60 59.86369
833.70 60.0833
833.80 60.33229
833.90 60.57603
834.00 60.72737
834.10 60.72742
834.20 60.66707
834.30 60.69722
834.40 60.86549
834.50 61.15843
834.60 61.54546
834.70 61.97736
834.80 62.36306
834.90 62.58244
835.00 62.52721
835.10 62.15847
835.20 61.55051
835.30 60.87383
835.40 60.3251
835.50 60.0567
835.60 60.04566
835.70 60.14419
835.80 60.26527
835.90 60.39082
836.00 60.52946
836.10 60.70538
836.20 60.95722
836.30 61.32955
836.40 61.85966
836.50 62.52718
836.60 63.24395
836.70 63.90267
836.80 64.41667
836.90 64.70727
837.00 64.69604
837.10 64.36923
837.20 63.77239
837.30 62.97356
837.40 62.08551
837.50 61.25266
837.60 60.61144
837.70 60.2809
837.80 60.31711
837.90 60.67537
838.00 61.2425
838.10 61.85935
838.20 62.35809
838.30 62.60217
838.40 62.49581
838.50 62.00798
838.60 61.20639
838.70 60.23119
838.80 59.23853
838.90 58.38116
839.00 57.79731
839.10 57.54866
839.20 57.63779
839.30 58.06976
839.40 58.77544
839.50 59.64213
839.60 60.6486
839.70 61.79444
839.80 63.04333
839.90 64.34778
840.00 65.58156
840.10 66.56639
840.20 67.19303
840.30 67.43405
840.40 67.3459
840.50 67.04734
840.60 66.65035
840.70 66.23218
840.80 65.86042
840.90 65.61036
841.00 65.45568
841.10 65.31017
841.20 65.14512
841.30 64.96965
841.40 64.8513
841.50 64.88645
841.60 65.0861
841.70 65.36949
841.80 65.61662
841.90 65.71247
842.00 65.58098
842.10 65.22808
842.20 64.73746
842.30 64.19759
842.40 63.68792
842.50 63.2494
842.60 62.87517
842.70 62.64349
842.80 62.64742
842.90 62.87078
843.00 63.23705
843.10 63.59696
843.20 63.73843
843.30 63.47763
843.40 62.74283
843.50 61.55064
843.60 60.01301
843.70 58.30794
843.80 56.63169
843.90 55.22054
844.00 54.26407
844.10 53.70819
844.20 53.34489
844.30 53.02045
844.40 52.64505
844.50 52.20852
844.60 51.75748
844.70 51.33554
844.80 50.87188
844.90 50.25588
845.00 49.51375
845.10 48.78651
845.20 48.2137
845.30 47.86068
845.40 47.71742
845.50 47.74211
845.60 47.91474
845.70 48.19062
845.80 48.47718
845.90 48.67563
846.00 48.74504
846.10 48.72141
846.20 48.7062
846.30 48.79318
846.40 49.01986
846.50 49.36989
846.60 49.76148
846.70 50.10788
846.80 50.35906
846.90 50.50439
847.00 50.53449
847.10 50.45647
847.20 50.31226
847.30 50.15116
847.40 49.98431
847.50 49.78697
847.60 49.60921
847.70 49.54514
847.80 49.56412
847.90 49.53586
848.00 49.36553
848.10 49.02364
848.20 48.57835
848.30 48.14216
848.40 47.78823
848.50 47.55652
848.60 47.47238
848.70 47.5629
848.80 47.8373
848.90 48.29992
849.00 48.92429
849.10 49.64268
849.20 50.41107
849.30 51.19617
849.40 51.93407
849.50 52.5212
849.60 52.82425
849.70 52.77757
849.80 52.43583
849.90 51.92882
850.00 51.39528
850.10 50.94949
850.20 50.7131
850.30 50.75956
850.40 51.09986
850.50 51.69464
850.60 52.41587
850.70 53.10775
850.80 53.65864
850.90 54.01667
851.00 54.16249
851.10 54.0739
851.20 53.72998
851.30 53.15019
851.40 52.40848
851.50 51.58648
851.60 50.70922
851.70 49.72933
851.80 48.56266
851.90 47.16511
852.00 45.61233
852.10 44.12072
852.20 42.96628
852.30 42.38412
852.40 42.51733
852.50 43.38208
852.60 44.86738
852.70 46.74577
852.80 48.71524
852.90 50.48334
853.00 51.83197
853.10 52.70458
853.20 53.15978
853.30 53.25977
853.40 53.08077
853.50 52.70721
853.60 52.25034
853.70 51.86336
853.80 51.66199
853.90 51.68094
854.00 51.92075
854.10 52.35134
854.20 52.88349
854.30 53.37234
854.40 53.70522
854.50 53.84089
854.60 53.8541
854.70 53.95139
854.80 54.32253
854.90 55.03909
855.00 56.03951
855.10 57.14793
855.20 58.18479
855.30 59.03051
855.40 59.5883
855.50 59.79897
855.60 59.68798
855.70 59.37317
855.80 58.99964
855.90 58.67017
856.00 58.39069
856.10 58.11518
856.20 57.82498
856.30 57.53819
856.40 57.29351
856.50 57.13831
856.60 57.09706
856.70 57.16948
856.80 57.33068
856.90 57.50778
857.00 57.62454
857.10 57.63207
857.20 57.50036
857.30 57.22932
857.40 56.87582
857.50 56.53185
857.60 56.28316
857.70 56.1829
857.80 56.23475
857.90 56.4141
858.00 56.69273
858.10 57.02824
858.20 57.37431
858.30 57.71186
858.40 58.05617
858.50 58.40874
858.60 58.73356
858.70 58.97034
858.80 59.06927
858.90 58.99084
859.00 58.71501
859.10 58.30105
859.20 57.88186
859.30 57.58411
859.40 57.5061
859.50 57.69386
859.60 58.08772
859.70 58.59016
859.80 59.08601
859.90 59.45095
860.00 59.60719
860.10 59.54623
860.20 59.3116
860.30 59.00289
860.40 58.74023
860.50 58.56356
860.60 58.41449
860.70 58.20085
860.80 57.79643
860.90 57.09285
861.00 56.11333
861.10 54.90807
861.20 53.48165
861.30 51.8775
861.40 50.19653
861.50 48.57841
861.60 47.16807
861.70 46.05134
861.80 45.23734
861.90 44.6959
862.00 44.37467
862.10 44.18488
862.20 44.03111
862.30 43.83988
862.40 43.54223
862.50 43.09012
862.60 42.52298
862.70 41.95892
862.80 41.53973
862.90 41.35306
863.00 41.40162
863.10 41.64356
863.20 42.01155
863.30 42.41336
863.40 42.73919
863.50 42.92051
863.60 42.9579
863.70 42.90014
863.80 42.82025
863.90 42.81555
864.00 42.97513
864.10 43.3248
864.20 43.82827
864.30 44.42766
864.40 45.07489
864.50 45.75707
864.60 46.47811
864.70 47.21947
864.80 47.96304
864.90 48.71479
865.00 49.48817
865.10 50.24568
865.20 50.88804
865.30 51.34631
865.40 51.61069
865.50 51.72157
865.60 51.77423
865.70 51.8939
865.80 52.15923
865.90 52.5243
866.00 52.87805
866.10 53.1336
866.20 53.26093
866.30 53.25888
866.40 53.10085
866.50 52.7987
866.60 52.43117
866.70 52.06724
866.80 51.74757
866.90 51.49889
867.00 51.31738
867.10 51.13996
867.20 50.87816
867.30 50.55492
867.40 50.30445
867.50 50.23288
867.60 50.35583
867.70 50.62095
867.80 50.95941
867.90 51.29643
868.00 51.58847
868.10 51.80113
868.20 51.88511
868.30 51.82251
868.40 51.63561
868.50 51.37678
868.60 51.1245
868.70 50.88709
868.80 50.55572
868.90 50.01561
869.00 49.1962
869.10 48.05709
869.20 46.61384
869.30 44.92595
869.40 43.06062
869.50 41.18223
869.60 39.54089
869.70 38.3102
869.80 37.55424
869.90 37.29274
870.00 37.5054
870.10 38.10473
870.20 38.9526
870.30 39.87196
870.40 40.67998
870.50 41.26496
870.60 41.58
870.70 41.6187
870.80 41.40192
870.90 40.9535
871.00 40.31737
871.10 39.60027
871.20 38.93022
871.30 38.38991
871.40 38.01845
871.50 37.81071
871.60 37.73876
871.70 37.79101
871.80 37.96481
871.90 38.22332
872.00 38.51934
872.10 38.84298
872.20 39.25213
872.30 39.81206
872.40 40.52491
872.50 41.343
872.60 42.19264
872.70 42.96959
872.80 43.55698
872.90 43.89934
873.00 44.00477
873.10 43.89075
873.20 43.58107
873.30 43.12738
873.40 42.59799
873.50 42.08876
873.60 41.70845
873.70 41.52709
873.80 41.5815
873.90 41.89204
874.00 42.44921
874.10 43.2512
874.20 44.28103
874.30 45.41456
874.40 46.44681
874.50 47.18286
874.60 47.51583
874.70 47.43912
874.80 47.051
874.90 46.49961
875.00 45.90536
875.10 45.38586
875.20 45.05933
875.30 44.9919
875.40 45.20718
875.50 45.65411
875.60 46.20229
875.70 46.77188
875.80 47.35751
875.90 48.02318
876.00 48.81803
876.10 49.68686
876.20 50.50954
876.30 51.1359
876.40 51.4076
876.50 51.2775
876.60 50.86961
876.70 50.40319
876.80 50.13099
876.90 50.26086
877.00 50.94578
877.10 52.21903
877.20 53.97152
877.30 55.94101
877.40 57.72413
877.50 59.02195
877.60 59.71189
877.70 59.82116
877.80 59.5558
877.90 59.12965
878.00 58.62925
878.10 58.08924
878.20 57.5491
878.30 57.05355
878.40 56.60731
878.50 56.16114
878.60 55.65845
878.70 55.10484
878.80 54.67554
878.90 54.53662
879.00 54.7205
879.10 55.19078
879.20 55.85199
879.30 56.60558
879.40 57.36512
879.50 58.04302
879.60 58.49428
879.70 58.5536
879.80 58.11521
879.90 57.18329
880.00 55.89306
880.10 54.44915
880.20 53.01987
880.30 51.73356
880.40 50.71587
880.50 50.05982
880.60 49.83768
880.70 50.109
880.80 50.89492
880.90 52.15304
881.00 53.81563
881.10 55.82944
881.20 58.13736
881.30 60.64901
881.40 63.21263
881.50 65.61449
881.60 67.63415
881.70 69.08253
881.80 69.81546
881.90 69.78398
882.00 69.00455
882.10 67.49594
882.20 65.39353
882.30 62.98033
882.40 60.58587
882.50 58.54657
882.60 57.2577
882.70 57.06498
882.80 58.01303
882.90 59.8681
883.00 62.20371
883.10 64.49647
883.20 66.32808
883.30 67.45238
883.40 67.83017
883.50 67.6952
883.60 67.40778
883.70 67.3144
883.80 67.67377
883.90 68.53478
884.00 69.61767
884.10 70.4326
884.20 70.56559
884.30 69.74574
884.40 67.92506
884.50 65.35153
884.60 62.43899
884.70 59.68268
884.80 57.58571
884.90 56.48819
885.00 56.51281
885.10 57.58097
885.20 59.42221
885.30 61.60849
885.40 63.64458
885.50 65.11225
885.60 65.7603
885.70 65.535
885.80 64.5538
885.90 63.08165
886.00 61.49996
886.10 60.17089
886.20 59.29233
886.30 58.89451
886.40 58.88818
886.50 59.11377
886.60 59.40569
886.70 59.57255
886.80 59.42122
886.90 58.81099
887.00 57.70966
887.10 56.24664
887.20 54.6651
887.30 53.25676
887.40 52.29982
887.50 52.0125
887.60 52.53374
887.70 53.85242
887.80 55.79772
887.90 58.06412
888.00 60.26565
888.10 62.07317
888.20 63.21216
888.30 63.64642
888.40 63.74211
888.50 63.98744
888.60 64.73899
888.70 66.10641
888.80 67.89064
888.90 69.66197
889.00 70.95674
889.10 71.41343
889.20 70.77223
889.30 68.94223
889.40 66.10951
889.50 62.75484
889.60 59.60174
889.70 57.26226
889.80 55.92361
889.90 55.58706
890.00 56.25155
890.10 57.83992
890.20 60.15372
890.30 62.89804
890.40 65.65914
890.50 67.9816
890.60 69.53601
890.70 70.1445
890.80 69.78448
890.90 68.61669
891.00 66.98147
891.10 65.32026
891.20 64.09813
891.30 63.59712
891.40 63.81346
891.50 64.57482
891.60 65.6619
891.70 66.85834
891.80 68.03687
891.90 69.15057
892.00 70.1357
892.10 70.87433
892.20 71.22941
892.30 71.10561
892.40 70.45957
892.50 69.3551
892.60 67.97137
892.70 66.54296
892.80 65.37324
892.90 64.79928
893.00 65.03627
893.10 66.10071
893.20 67.76647
893.30 69.61463
893.40 71.1935
893.50 72.18133
893.60 72.38021
893.70 71.67695
893.80 70.11731
893.90 67.85836
894.00 65.11911
894.10 62.24767
894.20 59.65018
894.30 57.66498
894.40 56.53438
894.50 56.34568
894.60 56.99273
894.70 58.22455
894.80 59.68831
894.90 60.9682
895.00 61.75225
895.10 62.01376
895.20 61.94697
895.30 61.83392
895.40 61.97903
895.50 62.63781
895.60 63.97537
895.70 66.01855
895.80 68.57443
895.90 71.23748
896.00 73.51812
896.10 74.99315
896.20 75.4329
896.30 74.84103
896.40 73.38581
896.50 71.29958
896.60 68.92369
896.70 66.71016
896.80 65.08423
896.90 64.35019
897.00 64.56411
897.10 65.52853
897.20 66.96775
897.30 68.64974
897.40 70.42514
897.50 72.14635
897.60 73.62293
897.70 74.73374
897.80 75.48064
897.90 75.9475
898.00 76.22365
898.10 76.41311
898.20 76.70627
898.30 77.29368
898.40 78.25953
898.50 79.55657
898.60 80.99474
898.70 82.27393
898.80 83.08804
898.90 83.28515
899.00 82.8956
899.10 82.02293
899.20 80.79282
899.30 79.31959
899.40 77.73302
899.50 76.19859
899.60 74.82837
899.70 73.65566
899.80 72.78282
899.90 72.44175
900.00 72.44175
900.10 72.44175
900.20 72.44175
900.30 72.44175
900.40 72.44175
900.50 72.44175
900.60 72.44175
900.70 72.44175
900.80 72.44175
900.90 72.44175
901.00 72.44175
901.10 72.44175
901.20 72.44175
901.30 72.44175
901.40 72.44175
901.50 72.44175
901.60 72.44175
901.70 72.44175
901.80 72.44175
901.90 72.44175
902.00 72.44175
902.10 72.44175
902.20 72.44175
902.30 72.44175
902.40 72.44175
902.50 72.44175
902.60 72.44175
902.70 72.44175
902.80 72.44175
902.90 72.44175
903.00 72.44175
903.10 72.44175
903.20 72.44175
903.30 72.44175
903.40 72.44175
903.50 72.44175
903.60 72.44175
903.70 72.44175
903.80 72.44175
903.90 72.44175
904.00 72.44175
904.10 72.44175
904.20 72.44175
904.30 72.44175
904.40 72.44175
904.50 72.44175
904.60 72.44175
904.70 72.44175
904.80 72.44175
904.90 72.44175
905.00 72.44175
905.10 72.44175
905.20 72.44175
905.30 72.44175
905.40 72.44175
905.50 72.44175
905.60 72.44175
905.70 72.44175
905.80 72.44175
905.90 72.44175
906.00 72.44175
906.10 72.44175
906.20 72.44175
906.30 72.44175
906.40 72.44175
906.50 72.44175
906.60 72.44175
906.70 72.44175
906.80 72.44175
906.90 72.44175
907.00 72.44175
907.10 72.44175
907.20 72.44175
907.30 72.44175
907.40 72.44175
907.50 72.44175
907.60 72.44175
907.70 72.44175
907.80 72.44175
907.90 72.44175
908.00 72.44175
908.10 72.44175
908.20 72.44175
908.30 72.44175
908.40 72.44175
908.50 72.44175
908.60 72.44175
908.70 72.44175
908.80 72.44175
908.90 72.44175
909.00 72.44175
909.10 72.44175
909.20 72.44175
909.30 72.44175
909.40 72.44175
909.50 72.44175
909.60 72.44175
909.70 72.44175
909.80 72.44175
909.90 72.44175
910.00 72.44175
910.10 72.44175
910.20 72.44175
910.30 72.44175
910.40 72.44175
910.50 72.44175
910.60 72.44175
910.70 72.44175
910.80 72.44175
910.90 72.44175
911.00 72.44175
911.10 72.44175
911.20 72.44175
911.30 72.44175
911.40 72.44175
911.50 72.44175
911.60 72.44175
911.70 72.44175
911.80 72.44175
911.90 72.44175
912.00 72.44175
912.10 72.44175
912.20 72.44175
912.30 72.44175
912.40 72.44175
912.50 72.44175
912.60 72.44175
912.70 72.44175
912.80 72.44175
912.90 72.44175
913.00 72.44175
913.10 72.44175
913.20 72.44175
913.30 72.44175
913.40 72.44175
913.50 72.44175
913.60 72.44175
913.70 72.44175
913.80 72.44175
913.90 72.44175
914.00 72.44175
914.10 72.44175
914.20 72.44175
914.30 72.44175
914.40 72.44175
914.50 72.44175
914.60 72.44175
914.70 72.44175
914.80 72.44175
914.90 72.44175
915.00 72.44175
915.10 72.44175
915.20 72.44175
915.30 72.44175
915.40 72.44175
915.50 72.44175
915.60 72.44175
915.70 72.44175
915.80 72.44175
915.90 72.44175
916.00 72.44175
916.10 72.44175
916.20 72.44175
916.30 72.44175
916.40 72.44175
916.50 72.44175
916.60 72.44175
916.70 72.44175
916.80 72.44175
916.90 72.44175
917.00 72.44175
917.10 72.44175
917.20 72.44175
917.30 72.44175
917.40 72.44175
917.50 72.44175
917.60 72.44175
917.70 72.44175
917.80 72.44175
917.90 72.44175
918.00 72.44175
918.10 72.44175
918.20 72.44175
918.30 72.44175
918.40 72.44175
918.50 72.44175
918.60 72.44175
918.70 72.44175
918.80 72.44175
918.90 72.44175
919.00 72.44175
919.10 72.44175
919.20 72.44175
919.30 72.44175
919.40 72.44175
919.50 72.44175
919.60 72.44175
919.70 72.44175
919.80 72.44175
919.90 72.44175
920.00 72.44175
920.10 72.44175
920.20 72.44175
920.30 72.44175
920.40 72.44175
920.50 72.44175
920.60 72.44175
920.70 72.44175
920.80 72.44175
920.90 72.44175
921.00 72.44175
921.10 72.44175
921.20 72.44175
921.30 72.44175
921.40 72.44175
921.50 72.44175
921.60 72.44175
921.70 72.44175
921.80 72.44175
921.90 72.44175
922.00 72.44175
922.10 72.44175
922.20 72.44175
922.30 72.44175
922.40 72.44175
922.50 72.44175
922.60 72.44175
922.70 72.44175
922.80 72.44175
922.90 72.44175
923.00 72.44175
923.10 72.44175
923.20 72.44175
923.30 72.44175
923.40 72.44175
923.50 72.44175
923.60 72.44175
923.70 72.44175
923.80 72.44175
923.90 72.44175
924.00 72.44175
924.10 72.44175
924.20 72.44175
924.30 72.44175
924.40 72.44175
924.50 72.44175
924.60 72.44175
924.70 72.44175
924.80 72.44175
924.90 72.44175
925.00 72.44175
925.10 72.44175
925.20 72.44175
925.30 72.44175
925.40 72.44175
925.50 72.44175
925.60 72.44175
925.70 72.44175
925.80 72.44175
925.90 72.44175
926.00 72.44175
926.10 72.44175
926.20 72.44175
926.30 72.44175
926.40 72.44175
926.50 72.44175
926.60 72.44175
926.70 72.44175
926.80 72.44175
926.90 72.44175
927.00 72.44175
927.10 72.44175
927.20 72.44175
927.30 72.44175
927.40 72.44175
927.50 72.44175
927.60 72.44175
927.70 72.44175
927.80 72.44175
927.90 72.44175
928.00 72.44175
928.10 72.44175
928.20 72.44175
928.30 72.44175
928.40 72.44175
928.50 72.44175
928.60 72.44175
928.70 72.44175
928.80 72.44175
928.90 72.44175
929.00 72.44175
929.10 72.44175
929.20 72.44175
929.30 72.44175
929.40 72.44175
929.50 72.44175
929.60 72.44175
929.70 72.44175
929.80 72.44175
929.90 72.44175
930.00 72.44175
930.10 72.44175
930.20 72.44175
930.30 72.44175
930.40 72.44175
930.50 72.44175
930.60 72.44175
930.70 72.44175
930.80 72.44175
930.90 72.44175
931.00 72.44175
931.10 72.44175
931.20 72.44175
931.30 72.44175
931.40 72.44175
931.50 72.44175
931.60 72.44175
931.70 72.44175
931.80 72.44175
931.90 72.44175
932.00 72.44175
932.10 72.44175
932.20 72.44175
932.30 72.44175
932.40 72.44175
932.50 72.44175
932.60 72.44175
932.70 72.44175
932.80 72.44175
932.90 72.44175
933.00 72.44175
933.10 72.44175
933.20 72.44175
933.30 72.44175
933.40 72.44175
933.50 72.44175
933.60 72.44175
933.70 72.44175
933.80 72.44175
933.90 72.44175
934.00 72.44175
934.10 72.44175
934.20 72.44175
934.30 72.44175
934.40 72.44175
934.50 72.44175
934.60 72.44175
934.70 72.44175
934.80 72.44175
934.90 72.44175
935.00 72.44175
935.10 72.44175
935.20 72.44175
935.30 72.44175
935.40 72.44175
935.50 72.44175
935.60 72.44175
935.70 72.44175
935.80 72.44175
935.90 72.44175
936.00 72.44175
936.10 72.44175
936.20 72.44175
936.30 72.44175
936.40 72.44175
936.50 72.44175
936.60 72.44175
936.70 72.44175
936.80 72.44175
936.90 72.44175
937.00 72.44175
937.10 72.44175
937.20 72.44175
937.30 72.44175
937.40 72.44175
937.50 72.44175
937.60 72.44175
937.70 72.44175
937.80 72.44175
937.90 72.44175
938.00 72.44175
938.10 72.44175
938.20 72.44175
938.30 72.44175
938.40 72.44175
938.50 72.44175
938.60 72.44175
938.70 72.44175
938.80 72.44175
938.90 72.44175
939.00 72.44175
939.10 72.44175
939.20 72.44175
939.30 72.44175
939.40 72.44175
939.50 72.44175
939.60 72.44175
939.70 72.44175
939.80 72.44175
939.90 72.44175
940.00 72.44175
940.10 72.44175
940.20 72.44175
940.30 72.44175
940.40 72.44175
940.50 72.44175
940.60 72.44175
940.70 72.44175
940.80 72.44175
940.90 72.44175
941.00 72.44175
941.10 72.44175
941.20 72.44175
941.30 72.44175
941.40 72.44175
941.50 72.44175
941.60 72.44175
941.70 72.44175
941.80 72.44175
941.90 72.44175
942.00 72.44175
942.10 72.44175
942.20 72.44175
942.30 72.44175
942.40 72.44175
942.50 72.44175
942.60 72.44175
942.70 72.44175
942.80 72.44175
942.90 72.44175
943.00 72.44175
943.10 72.44175
943.20 72.44175
943.30 72.44175
943.40 72.44175
943.50 72.44175
943.60 72.44175
943.70 72.44175
943.80 72.44175
943.90 72.44175
944.00 72.44175
944.10 72.44175
944.20 72.44175
944.30 72.44175
944.40 72.44175
944.50 72.44175
944.60 72.44175
944.70 72.44175
944.80 72.44175
944.90 72.44175
945.00 72.44175
945.10 72.44175
945.20 72.44175
945.30 72.44175
945.40 72.44175
945.50 72.44175
945.60 72.44175
945.70 72.44175
945.80 72.44175
945.90 72.44175
946.00 72.44175
946.10 72.44175
946.20 72.44175
946.30 72.44175
946.40 72.44175
946.50 72.44175
946.60 72.44175
946.70 72.44175
946.80 72.44175
946.90 72.44175
947.00 72.44175
947.10 72.44175
947.20 72.44175
947.30 72.44175
947.40 72.44175
947.50 72.44175
947.60 72.44175
947.70 72.44175
947.80 72.44175
947.90 72.44175
948.00 72.44175
948.10 72.44175
948.20 72.44175
948.30 72.44175
948.40 72.44175
948.50 72.44175
948.60 72.44175
948.70 72.44175
948.80 72.44175
948.90 72.44175
949.00 72.44175
949.10 72.44175
949.20 72.44175
949.30 72.44175
949.40 72.44175
949.50 72.44175
949.60 72.44175
949.70 72.44175
949.80 72.44175
949.90 72.44175
950.00 72.44175
950.10 72.44175
950.20 72.44175
950.30 72.44175
950.40 72.44175
950.50 72.44175
950.60 72.44175
950.70 72.44175
950.80 72.44175
950.90 72.44175
951.00 72.44175
951.10 72.44175
951.20 72.44175
951.30 72.44175
951.40 72.44175
951.50 72.44175
951.60 72.44175
951.70 72.44175
951.80 72.44175
951.90 72.44175
952.00 72.44175
952.10 72.44175
952.20 72.44175
952.30 72.44175
952.40 72.44175
952.50 72.44175
952.60 72.44175
952.70 72.44175
952.80 72.44175
952.90 72.44175
953.00 72.44175
953.10 72.44175
953.20 72.44175
953.30 72.44175
953.40 72.44175
953.50 72.44175
953.60 72.44175
953.70 72.44175
953.80 72.44175
953.90 72.44175
954.00 72.44175
954.10 72.44175
954.20 72.44175
954.30 72.44175
954.40 72.44175
954.50 72.44175
954.60 72.44175
954.70 72.44175
954.80 72.44175
954.90 72.44175
955.00 72.44175
955.10 72.44175
955.20 72.44175
955.30 72.44175
955.40 72.44175
955.50 72.44175
955.60 72.44175
955.70 72.44175
955.80 72.44175
955.90 72.44175
956.00 72.44175
956.10 72.44175
956.20 72.44175
956.30 72.44175
956.40 72.44175
956.50 72.44175
956.60 72.44175
956.70 72.44175
956.80 72.44175
956.90 72.44175
957.00 72.44175
957.10 72.44175
957.20 72.44175
957.30 72.44175
957.40 72.44175
957.50 72.44175
957.60 72.44175
957.70 72.44175
957.80 72.44175
957.90 72.44175
958.00 72.44175
958.10 72.44175
958.20 72.44175
958.30 72.44175
958.40 72.44175
958.50 72.44175
958.60 72.44175
958.70 72.44175
958.80 72.44175
958.90 72.44175
959.00 72.44175
959.10 72.44175
959.20 72.44175
959.30 72.44175
959.40 72.44175
959.50 72.44175
959.60 72.44175
959.70 72.44175
959.80 72.44175
959.90 72.44175
960.00 72.44175
960.10 72.44175
960.20 72.44175
960.30 72.44175
960.40 72.44175
960.50 72.44175
960.60 72.44175
960.70 72.44175
960.80 72.44175
960.90 72.44175
961.00 72.44175
961.10 72.44175
961.20 72.44175
961.30 72.44175
961.40 72.44175
961.50 72.44175
961.60 72.44175
961.70 72.44175
961.80 72.44175
961.90 72.44175
962.00 72.44175
962.10 72.44175
962.20 72.44175
962.30 72.44175
962.40 72.44175
962.50 72.44175
962.60 72.44175
962.70 72.44175
962.80 72.44175
962.90 72.44175
963.00 72.44175
963.10 72.44175
963.20 72.44175
963.30 72.44175
963.40 72.44175
963.50 72.44175
963.60 72.44175
963.70 72.44175
963.80 72.44175
963.90 72.44175
964.00 72.44175
964.10 72.44175
964.20 72.44175
964.30 72.44175
964.40 72.44175
964.50 72.44175
964.60 72.44175
964.70 72.44175
964.80 72.44175
964.90 72.44175
965.00 72.44175
965.10 72.44175
965.20 72.44175
965.30 72.44175
965.40 72.44175
965.50 72.44175
965.60 72.44175
965.70 72.44175
965.80 72.44175
965.90 72.44175
966.00 72.44175
966.10 72.44175
966.20 72.44175
966.30 72.44175
966.40 72.44175
966.50 72.44175
966.60 72.44175
966.70 72.44175
966.80 72.44175
966.90 72.44175
967.00 72.44175
967.10 72.44175
967.20 72.44175
967.30 72.44175
967.40 72.44175
967.50 72.44175
967.60 72.44175
967.70 72.44175
967.80 72.44175
967.90 72.44175
968.00 72.44175
968.10 72.44175
968.20 72.44175
968.30 72.44175
968.40 72.44175
968.50 72.44175
968.60 72.44175
968.70 72.44175
968.80 72.44175
968.90 72.44175
969.00 72.44175
969.10 72.44175
969.20 72.44175
969.30 72.44175
969.40 72.44175
969.50 72.44175
969.60 72.44175
969.70 72.44175
969.80 72.44175
969.90 72.44175
970.00 72.44175
970.10 72.44175
970.20 72.44175
970.30 72.44175
970.40 72.44175
970.50 72.44175
970.60 72.44175
970.70 72.44175
970.80 72.44175
970.90 72.44175
971.00 72.44175
971.10 72.44175
971.20 72.44175
971.30 72.44175
971.40 72.44175
971.50 72.44175
971.60 72.44175
971.70 72.44175
971.80 72.44175
971.90 72.44175
972.00 72.44175
972.10 72.44175
972.20 72.44175
972.30 72.44175
972.40 72.44175
972.50 72.44175
972.60 72.44175
972.70 72.44175
972.80 72.44175
972.90 72.44175
973.00 72.44175
973.10 72.44175
973.20 72.44175
973.30 72.44175
973.40 72.44175
973.50 72.44175
973.60 72.44175
973.70 72.44175
973.80 72.44175
973.90 72.44175
974.00 72.44175
974.10 72.44175
974.20 72.44175
974.30 72.44175
974.40 72.44175
974.50 72.44175
974.60 72.44175
974.70 72.44175
974.80 72.44175
974.90 72.44175
975.00 72.44175
975.10 72.44175
975.20 72.44175
975.30 72.44175
975.40 72.44175
975.50 72.44175
975.60 72.44175
975.70 72.44175
975.80 72.44175
975.90 72.44175
976.00 72.44175
976.10 72.44175
976.20 72.44175
976.30 72.44175
976.40 72.44175
976.50 72.44175
976.60 72.44175
976.70 72.44175
976.80 72.44175
976.90 72.44175
977.00 72.44175
977.10 72.44175
977.20 72.44175
977.30 72.44175
977.40 72.44175
977.50 72.44175
977.60 72.44175
977.70 72.44175
977.80 72.44175
977.90 72.44175
978.00 72.44175
978.10 72.44175
978.20 72.44175
978.30 72.44175
978.40 72.44175
978.50 72.44175
978.60 72.44175
978.70 72.44175
978.80 72.44175
978.90 72.44175
979.00 72.44175
979.10 72.44175
979.20 72.44175
979.30 72.44175
979.40 72.44175
979.50 72.44175
979.60 72.44175
979.70 72.44175
979.80 72.44175
979.90 72.44175
980.00 72.44175
980.10 72.44175
980.20 72.44175
980.30 72.44175
980.40 72.44175
980.50 72.44175
980.60 72.44175
980.70 72.44175
980.80 72.44175
980.90 72.44175
981.00 72.44175
981.10 72.44175
981.20 72.44175
981.30 72.44175
981.40 72.44175
981.50 72.44175
981.60 72.44175
981.70 72.44175
981.80 72.44175
981.90 72.44175
982.00 72.44175
982.10 72.44175
982.20 72.44175
982.30 72.44175
982.40 72.44175
982.50 72.44175
982.60 72.44175
982.70 72.44175
982.80 72.44175
982.90 72.44175
983.00 72.44175
983.10 72.44175
983.20 72.44175
983.30 72.44175
983.40 72.44175
983.50 72.44175
983.60 72.44175
983.70 72.44175
983.80 72.44175
983.90 72.44175
984.00 72.44175
984.10 72.44175
984.20 72.44175
984.30 72.44175
984.40 72.44175
984.50 72.44175
984.60 72.44175
984.70 72.44175
984.80 72.44175
984.90 72.44175
985.00 72.44175
985.10 72.44175
985.20 72.44175
985.30 72.44175
985.40 72.44175
985.50 72.44175
985.60 72.44175
985.70 72.44175
985.80 72.44175
985.90 72.44175
986.00 72.44175
986.10 72.44175
986.20 72.44175
986.30 72.44175
986.40 72.44175
986.50 72.44175
986.60 72.44175
986.70 72.44175
986.80 72.44175
986.90 72.44175
987.00 72.44175
987.10 72.44175
987.20 72.44175
987.30 72.44175
987.40 72.44175
987.50 72.44175
987.60 72.44175
987.70 72.44175
987.80 72.44175
987.90 72.44175
988.00 72.44175
988.10 72.44175
988.20 72.44175
988.30 72.44175
988.40 72.44175
988.50 72.44175
988.60 72.44175
988.70 72.44175
988.80 72.44175
988.90 72.44175
989.00 72.44175
989.10 72.44175
989.20 72.44175
989.30 72.44175
989.40 72.44175
989.50 72.44175
989.60 72.44175
989.70 72.44175
989.80 72.44175
989.90 72.44175
990.00 72.44175
990.10 72.44175
990.20 72.44175
990.30 72.44175
990.40 72.44175
990.50 72.44175
990.60 72.44175
990.70 72.44175
990.80 72.44175
990.90 72.44175
991.00 72.44175
991.10 72.44175
991.20 72.44175
991.30 72.44175
991.40 72.44175
991.50 72.44175
991.60 72.44175
991.70 72.44175
991.80 72.44175
991.90 72.44175
992.00 72.44175
992.10 72.44175
992.20 72.44175
992.30 72.44175
992.40 72.44175
992.50 72.44175
992.60 72.44175
992.70 72.44175
992.80 72.44175
992.90 72.44175
993.00 72.44175
993.10 72.44175
993.20 72.44175
993.30 72.44175
993.40 72.44175
993.50 72.44175
993.60 72.44175
993.70 72.44175
993.80 72.44175
993.90 72.44175
994.00 72.44175
994.10 72.44175
994.20 72.44175
994.30 72.44175
994.40 72.44175
994.50 72.44175
994.60 72.44175
994.70 72.44175
994.80 72.44175
994.90 72.44175
995.00 72.44175
995.10 72.44175
995.20 72.44175
995.30 72.44175
995.40 72.44175
995.50 72.44175
995.60 72.44175
995.70 72.44175
995.80 72.44175
995.90 72.44175
996.00 72.44175
996.10 72.44175
996.20 72.44175
996.30 72.44175
996.40 72.44175
996.50 72.44175
996.60 72.44175
996.70 72.44175
996.80 72.44175
996.90 72.44175
997.00 72.44175
997.10 72.44175
997.20 72.44175
997.30 72.44175
997.40 72.44175
997.50 72.44175
997.60 72.44175
997.70 72.44175
997.80 72.44175
997.90 72.44175
998.00 72.44175
998.10 72.44175
998.20 72.44175
998.30 72.44175
998.40 72.44175
998.50 72.44175
998.60 72.44175
998.70 72.44175
998.80 72.44175
998.90 72.44175
999.00 72.44175
999.10 72.44175
999.20 72.44175
999.30 72.44175
999.40 72.44175
999.50 72.44175
999.60 72.44175
999.70 72.44175
999.80 72.44175
999.90 72.44175
1000.00 72.44175
1000.10 72.44175
1000.20 72.44175
1000.30 72.44175
1000.40 72.44175
1000.50 72.44175
1000.60 72.44175
1000.70 72.44175
1000.80 72.44175
1000.90 72.44175
1001.00 72.44175
1001.10 72.44175
1001.20 72.44175
1001.30 72.44175
1001.40 72.44175
1001.50 72.44175
1001.60 72.44175
1001.70 72.44175
1001.80 72.44175
1001.90 72.44175
1002.00 72.44175
1002.10 72.44175
1002.20 72.44175
1002.30 72.44175
1002.40 72.44175
1002.50 72.44175
1002.60 72.44175
1002.70 72.44175
1002.80 72.44175
1002.90 72.44175
1003.00 72.44175
1003.10 72.44175
1003.20 72.44175
1003.30 72.44175
1003.40 72.44175
1003.50 72.44175
1003.60 72.44175
1003.70 72.44175
1003.80 72.44175
1003.90 72.44175
1004.00 72.44175
1004.10 72.44175
1004.20 72.44175
1004.30 72.44175
1004.40 72.44175
1004.50 72.44175
1004.60 72.44175
1004.70 72.44175
1004.80 72.44175
1004.90 72.44175
1005.00 72.44175
1005.10 72.44175
1005.20 72.44175
1005.30 72.44175
1005.40 72.44175
1005.50 72.44175
1005.60 72.44175
1005.70 72.44175
1005.80 72.44175
1005.90 72.44175
1006.00 72.44175
1006.10 72.44175
1006.20 72.44175
1006.30 72.44175
1006.40 72.44175
1006.50 72.44175
1006.60 72.44175
1006.70 72.44175
1006.80 72.44175
1006.90 72.44175
1007.00 72.44175
1007.10 72.44175
1007.20 72.44175
1007.30 72.44175
1007.40 72.44175
1007.50 72.44175
1007.60 72.44175
1007.70 72.44175
1007.80 72.44175
1007.90 72.44175
1008.00 72.44175
1008.10 72.44175
1008.20 72.44175
1008.30 72.44175
1008.40 72.44175
1008.50 72.44175
1008.60 72.44175
1008.70 72.44175
1008.80 72.44175
1008.90 72.44175
1009.00 72.44175
1009.10 72.44175
1009.20 72.44175
1009.30 72.44175
1009.40 72.44175
1009.50 72.44175
1009.60 72.44175
1009.70 72.44175
1009.80 72.44175
1009.90 72.44175
1010.00 72.44175
1010.10 72.44175
1010.20 72.44175
1010.30 72.44175
1010.40 72.44175
1010.50 72.44175
1010.60 72.44175
1010.70 72.44175
1010.80 72.44175
1010.90 72.44175
1011.00 72.44175
1011.10 72.44175
1011.20 72.44175
1011.30 72.44175
1011.40 72.44175
1011.50 72.44175
1011.60 72.44175
1011.70 72.44175
1011.80 72.44175
1011.90 72.44175
1012.00 72.44175
1012.10 72.44175
1012.20 72.44175
1012.30 72.44175
1012.40 72.44175
1012.50 72.44175
1012.60 72.44175
1012.70 72.44175
1012.80 72.44175
1012.90 72.44175
1013.00 72.44175
1013.10 72.44175
1013.20 72.44175
1013.30 72.44175
1013.40 72.44175
1013.50 72.44175
1013.60 72.44175
1013.70 72.44175
1013.80 72.44175
1013.90 72.44175
1014.00 72.44175
1014.10 72.44175
1014.20 72.44175
1014.30 72.44175
1014.40 72.44175
1014.50 72.44175
1014.60 72.44175
1014.70 72.44175
1014.80 72.44175
1014.90 72.44175
1015.00 72.44175
1015.10 72.44175
1015.20 72.44175
1015.30 72.44175
1015.40 72.44175
1015.50 72.44175
1015.60 72.44175
1015.70 72.44175
1015.80 72.44175
1015.90 72.44175
1016.00 72.44175
1016.10 72.44175
1016.20 72.44175
1016.30 72.44175
1016.40 72.44175
1016.50 72.44175
1016.60 72.44175
1016.70 72.44175
1016.80 72.44175
1016.90 72.44175
1017.00 72.44175
1017.10 72.44175
1017.20 72.44175
1017.30 72.44175
1017.40 72.44175
1017.50 72.44175
1017.60 72.44175
1017.70 72.44175
1017.80 72.44175
1017.90 72.44175
1018.00 72.44175
1018.10 72.44175
1018.20 72.44175
1018.30 72.44175
1018.40 72.44175
1018.50 72.44175
1018.60 72.44175
1018.70 72.44175
1018.80 72.44175
1018.90 72.44175
1019.00 72.44175
1019.10 72.44175
1019.20 72.44175
1019.30 72.44175
1019.40 72.44175
1019.50 72.44175
1019.60 72.44175
1019.70 72.44175
1019.80 72.44175
1019.90 72.44175
1020.00 72.44175
1020.10 72.44175
1020.20 72.44175
1020.30 72.44175
1020.40 72.44175
1020.50 72.44175
1020.60 72.44175
1020.70 72.44175
1020.80 72.44175
1020.90 72.44175
1021.00 72.44175
1021.10 72.44175
1021.20 72.44175
1021.30 72.44175
1021.40 72.44175
1021.50 72.44175
1021.60 72.44175
1021.70 72.44175
1021.80 72.44175
1021.90 72.44175
1022.00 72.44175
1022.10 72.44175
1022.20 72.44175
1022.30 72.44175
1022.40 72.44175
1022.50 72.44175
1022.60 72.44175
1022.70 72.44175
1022.80 72.44175
1022.90 72.44175
1023.00 72.44175
1023.10 72.44175
1023.20 72.44175
1023.30 72.44175
1023.40 72.44175
1023.50 72.44175
1023.60 72.44175
1023.70 72.44175
1023.80 72.44175
1023.90 72.44175
1024.00 72.44175
1024.10 72.44175
1024.20 72.44175
1024.30 72.44175
1024.40 72.44175
1024.50 72.44175
1024.60 72.44175
1024.70 72.44175
1024.80 72.44175
1024.90 72.44175
1025.00 72.44175
1025.10 72.44175
1025.20 72.44175
1025.30 72.44175
1025.40 72.44175
1025.50 72.44175
1025.60 72.44175
1025.70 72.44175
1025.80 72.44175
1025.90 72.44175
1026.00 72.44175
1026.10 72.44175
1026.20 72.44175
1026.30 72.44175
1026.40 72.44175
1026.50 72.44175
1026.60 72.44175
1026.70 72.44175
1026.80 72.44175
1026.90 72.44175
1027.00 72.44175
1027.10 72.44175
1027.20 72.44175
1027.30 72.44175
1027.40 72.44175
1027.50 72.44175
1027.60 72.44175
1027.70 72.44175
1027.80 72.44175
1027.90 72.44175
1028.00 72.44175
1028.10 72.44175
1028.20 72.44175
1028.30 72.44175
1028.40 72.44175
1028.50 72.44175
1028.60 72.44175
1028.70 72.44175
1028.80 72.44175
1028.90 72.44175
1029.00 72.44175
1029.10 72.44175
1029.20 72.44175
1029.30 72.44175
1029.40 72.44175
1029.50 72.44175
1029.60 72.44175
1029.70 72.44175
1029.80 72.44175
1029.90 72.44175
1030.00 72.44175
1030.10 72.44175
1030.20 72.44175
1030.30 72.44175
1030.40 72.44175
1030.50 72.44175
1030.60 72.44175
1030.70 72.44175
1030.80 72.44175
1030.90 72.44175
1031.00 72.44175
1031.10 72.44175
1031.20 72.44175
1031.30 72.44175
1031.40 72.44175
1031.50 72.44175
1031.60 72.44175
1031.70 72.44175
1031.80 72.44175
1031.90 72.44175
1032.00 72.44175
1032.10 72.44175
1032.20 72.44175
1032.30 72.44175
1032.40 72.44175
1032.50 72.44175
1032.60 72.44175
1032.70 72.44175
1032.80 72.44175
1032.90 72.44175
1033.00 72.44175
1033.10 72.44175
1033.20 72.44175
1033.30 72.44175
1033.40 72.44175
1033.50 72.44175
1033.60 72.44175
1033.70 72.44175
1033.80 72.44175
1033.90 72.44175
1034.00 72.44175
1034.10 72.44175
1034.20 72.44175
1034.30 72.44175
1034.40 72.44175
1034.50 72.44175
1034.60 72.44175
1034.70 72.44175
1034.80 72.44175
1034.90 72.44175
1035.00 72.44175
1035.10 72.44175
1035.20 72.44175
1035.30 72.44175
1035.40 72.44175
1035.50 72.44175
1035.60 72.44175
1035.70 72.44175
1035.80 72.44175
1035.90 72.44175
1036.00 72.44175
1036.10 72.44175
1036.20 72.44175
1036.30 72.44175
1036.40 72.44175
1036.50 72.44175
1036.60 72.44175
1036.70 72.44175
1036.80 72.44175
1036.90 72.44175
1037.00 72.44175
1037.10 72.44175
1037.20 72.44175
1037.30 72.44175
1037.40 72.44175
1037.50 72.44175
1037.60 72.44175
1037.70 72.44175
1037.80 72.44175
1037.90 72.44175
1038.00 72.44175
1038.10 72.44175
1038.20 72.44175
1038.30 72.44175
1038.40 72.44175
1038.50 72.44175
1038.60 72.44175
1038.70 72.44175
1038.80 72.44175
1038.90 72.44175
1039.00 72.44175
1039.10 72.44175
1039.20 72.44175
1039.30 72.44175
1039.40 72.44175
1039.50 72.44175
1039.60 72.44175
1039.70 72.44175
1039.80 72.44175
1039.90 72.44175
1040.00 72.44175
1040.10 72.44175
1040.20 72.44175
1040.30 72.44175
1040.40 72.44175
1040.50 72.44175
1040.60 72.44175
1040.70 72.44175
1040.80 72.44175
1040.90 72.44175
1041.00 72.44175
1041.10 72.44175
1041.20 72.44175
1041.30 72.44175
1041.40 72.44175
1041.50 72.44175
1041.60 72.44175
1041.70 72.44175
1041.80 72.44175
1041.90 72.44175
1042.00 72.44175
1042.10 72.44175
1042.20 72.44175
1042.30 72.44175
1042.40 72.44175
1042.50 72.44175
1042.60 72.44175
1042.70 72.44175
1042.80 72.44175
1042.90 72.44175
1043.00 72.44175
1043.10 72.44175
1043.20 72.44175
1043.30 72.44175
1043.40 72.44175
1043.50 72.44175
1043.60 72.44175
1043.70 72.44175
1043.80 72.44175
1043.90 72.44175
1044.00 72.44175
1044.10 72.44175
1044.20 72.44175
1044.30 72.44175
1044.40 72.44175
1044.50 72.44175
1044.60 72.44175
1044.70 72.44175
1044.80 72.44175
1044.90 72.44175
1045.00 72.44175
1045.10 72.44175
1045.20 72.44175
1045.30 72.44175
1045.40 72.44175
1045.50 72.44175
1045.60 72.44175
1045.70 72.44175
1045.80 72.44175
1045.90 72.44175
1046.00 72.44175
1046.10 72.44175
1046.20 72.44175
1046.30 72.44175
1046.40 72.44175
1046.50 72.44175
1046.60 72.44175
1046.70 72.44175
1046.80 72.44175
1046.90 72.44175
1047.00 72.44175
1047.10 72.44175
1047.20 72.44175
1047.30 72.44175
1047.40 72.44175
1047.50 72.44175
1047.60 72.44175
1047.70 72.44175
1047.80 72.44175
1047.90 72.44175
1048.00 72.44175
1048.10 72.44175
1048.20 72.44175
1048.30 72.44175
1048.40 72.44175
1048.50 72.44175
1048.60 72.44175
1048.70 72.44175
1048.80 72.44175
1048.90 72.44175
1049.00 72.44175
1049.10 72.44175
1049.20 72.44175
1049.30 72.44175
1049.40 72.44175
1049.50 72.44175
1049.60 72.44175
1049.70 72.44175
1049.80 72.44175
1049.90 72.44175
1050.00 72.44175
1050.10 72.44175
1050.20 72.44175
1050.30 72.44175
1050.40 72.44175
1050.50 72.44175
1050.60 72.44175
1050.70 72.44175
1050.80 72.44175
1050.90 72.44175
1051.00 72.44175
1051.10 72.44175
1051.20 72.44175
1051.30 72.44175
1051.40 72.44175
1051.50 72.44175
1051.60 72.44175
1051.70 72.44175
1051.80 72.44175
1051.90 72.44175
1052.00 72.44175
1052.10 72.44175
1052.20 72.44175
1052.30 72.44175
1052.40 72.44175
1052.50 72.44175
1052.60 72.44175
1052.70 72.44175
1052.80 72.44175
1052.90 72.44175
1053.00 72.44175
1053.10 72.44175
1053.20 72.44175
1053.30 72.44175
1053.40 72.44175
1053.50 72.44175
1053.60 72.44175
1053.70 72.44175
1053.80 72.44175
1053.90 72.44175
1054.00 72.44175
1054.10 72.44175
1054.20 72.44175
1054.30 72.44175
1054.40 72.44175
1054.50 72.44175
1054.60 72.44175
1054.70 72.44175
1054.80 72.44175
1054.90 72.44175
1055.00 72.44175
1055.10 72.44175
1055.20 72.44175
1055.30 72.44175
1055.40 72.44175
1055.50 72.44175
1055.60 72.44175
1055.70 72.44175
1055.80 72.44175
1055.90 72.44175
1056.00 72.44175
1056.10 72.44175
1056.20 72.44175
1056.30 72.44175
1056.40 72.44175
1056.50 72.44175
1056.60 72.44175
1056.70 72.44175
1056.80 72.44175
1056.90 72.44175
1057.00 72.44175
1057.10 72.44175
1057.20 72.44175
1057.30 72.44175
1057.40 72.44175
1057.50 72.44175
1057.60 72.44175
1057.70 72.44175
1057.80 72.44175
1057.90 72.44175
1058.00 72.44175
1058.10 72.44175
1058.20 72.44175
1058.30 72.44175
1058.40 72.44175
1058.50 72.44175
1058.60 72.44175
1058.70 72.44175
1058.80 72.44175
1058.90 72.44175
1059.00 72.44175
1059.10 72.44175
1059.20 72.44175
1059.30 72.44175
1059.40 72.44175
1059.50 72.44175
1059.60 72.44175
1059.70 72.44175
1059.80 72.44175
1059.90 72.44175
1060.00 72.44175
1060.10 72.44175
1060.20 72.44175
1060.30 72.44175
1060.40 72.44175
1060.50 72.44175
1060.60 72.44175
1060.70 72.44175
1060.80 72.44175
1060.90 72.44175
1061.00 72.44175
1061.10 72.44175
1061.20 72.44175
1061.30 72.44175
1061.40 72.44175
1061.50 72.44175
1061.60 72.44175
1061.70 72.44175
1061.80 72.44175
1061.90 72.44175
1062.00 72.44175
1062.10 72.44175
1062.20 72.44175
1062.30 72.44175
1062.40 72.44175
1062.50 72.44175
1062.60 72.44175
1062.70 72.44175
1062.80 72.44175
1062.90 72.44175
1063.00 72.44175
1063.10 72.44175
1063.20 72.44175
1063.30 72.44175
1063.40 72.44175
1063.50 72.44175
1063.60 72.44175
1063.70 72.44175
1063.80 72.44175
1063.90 72.44175
1064.00 72.44175
1064.10 72.44175
1064.20 72.44175
1064.30 72.44175
1064.40 72.44175
1064.50 72.44175
1064.60 72.44175
1064.70 72.44175
1064.80 72.44175
1064.90 72.44175
1065.00 72.44175
1065.10 72.44175
1065.20 72.44175
1065.30 72.44175
1065.40 72.44175
1065.50 72.44175
1065.60 72.44175
1065.70 72.44175
1065.80 72.44175
1065.90 72.44175
1066.00 72.44175
1066.10 72.44175
1066.20 72.44175
1066.30 72.44175
1066.40 72.44175
1066.50 72.44175
1066.60 72.44175
1066.70 72.44175
1066.80 72.44175
1066.90 72.44175
1067.00 72.44175
1067.10 72.44175
1067.20 72.44175
1067.30 72.44175
1067.40 72.44175
1067.50 72.44175
1067.60 72.44175
1067.70 72.44175
1067.80 72.44175
1067.90 72.44175
1068.00 72.44175
1068.10 72.44175
1068.20 72.44175
1068.30 72.44175
1068.40 72.44175
1068.50 72.44175
1068.60 72.44175
1068.70 72.44175
1068.80 72.44175
1068.90 72.44175
1069.00 72.44175
1069.10 72.44175
1069.20 72.44175
1069.30 72.44175
1069.40 72.44175
1069.50 72.44175
1069.60 72.44175
1069.70 72.44175
1069.80 72.44175
1069.90 72.44175
1070.00 72.44175
1070.10 72.44175
1070.20 72.44175
1070.30 72.44175
1070.40 72.44175
1070.50 72.44175
1070.60 72.44175
1070.70 72.44175
1070.80 72.44175
1070.90 72.44175
1071.00 72.44175
1071.10 72.44175
1071.20 72.44175
1071.30 72.44175
1071.40 72.44175
1071.50 72.44175
1071.60 72.44175
1071.70 72.44175
1071.80 72.44175
1071.90 72.44175
1072.00 72.44175
1072.10 72.44175
1072.20 72.44175
1072.30 72.44175
1072.40 72.44175
1072.50 72.44175
1072.60 72.44175
1072.70 72.44175
1072.80 72.44175
1072.90 72.44175
1073.00 72.44175
1073.10 72.44175
1073.20 72.44175
1073.30 72.44175
1073.40 72.44175
1073.50 72.44175
1073.60 72.44175
1073.70 72.44175
1073.80 72.44175
1073.90 72.44175
1074.00 72.44175
1074.10 72.44175
1074.20 72.44175
1074.30 72.44175
1074.40 72.44175
1074.50 72.44175
1074.60 72.44175
1074.70 72.44175
1074.80 72.44175
1074.90 72.44175
1075.00 72.44175
1075.10 72.44175
1075.20 72.44175
1075.30 72.44175
1075.40 72.44175
1075.50 72.44175
1075.60 72.44175
1075.70 72.44175
1075.80 72.44175
1075.90 72.44175
1076.00 72.44175
1076.10 72.44175
1076.20 72.44175
1076.30 72.44175
1076.40 72.44175
1076.50 72.44175
1076.60 72.44175
1076.70 72.44175
1076.80 72.44175
1076.90 72.44175
1077.00 72.44175
1077.10 72.44175
1077.20 72.44175
1077.30 72.44175
1077.40 72.44175
1077.50 72.44175
1077.60 72.44175
1077.70 72.44175
1077.80 72.44175
1077.90 72.44175
1078.00 72.44175
1078.10 72.44175
1078.20 72.44175
1078.30 72.44175
1078.40 72.44175
1078.50 72.44175
1078.60 72.44175
1078.70 72.44175
1078.80 72.44175
1078.90 72.44175
1079.00 72.44175
1079.10 72.44175
1079.20 72.44175
1079.30 72.44175
1079.40 72.44175
1079.50 72.44175
1079.60 72.44175
1079.70 72.44175
1079.80 72.44175
1079.90 72.44175
1080.00 72.44175
1080.10 72.44175
1080.20 72.44175
1080.30 72.44175
1080.40 72.44175
1080.50 72.44175
1080.60 72.44175
1080.70 72.44175
1080.80 72.44175
1080.90 72.44175
1081.00 72.44175
1081.10 72.44175
1081.20 72.44175
1081.30 72.44175
1081.40 72.44175
1081.50 72.44175
1081.60 72.44175
1081.70 72.44175
1081.80 72.44175
1081.90 72.44175
1082.00 72.44175
1082.10 72.44175
1082.20 72.44175
1082.30 72.44175
1082.40 72.44175
1082.50 72.44175
1082.60 72.44175
1082.70 72.44175
1082.80 72.44175
1082.90 72.44175
1083.00 72.44175
1083.10 72.44175
1083.20 72.44175
1083.30 72.44175
1083.40 72.44175
1083.50 72.44175
1083.60 72.44175
1083.70 72.44175
1083.80 72.44175
1083.90 72.44175
1084.00 72.44175
1084.10 72.44175
1084.20 72.44175
1084.30 72.44175
1084.40 72.44175
1084.50 72.44175
1084.60 72.44175
1084.70 72.44175
1084.80 72.44175
1084.90 72.44175
1085.00 72.44175
1085.10 72.44175
1085.20 72.44175
1085.30 72.44175
1085.40 72.44175
1085.50 72.44175
1085.60 72.44175
1085.70 72.44175
1085.80 72.44175
1085.90 72.44175
1086.00 72.44175
1086.10 72.44175
1086.20 72.44175
1086.30 72.44175
1086.40 72.44175
1086.50 72.44175
1086.60 72.44175
1086.70 72.44175
1086.80 72.44175
1086.90 72.44175
1087.00 72.44175
1087.10 72.44175
1087.20 72.44175
1087.30 72.44175
1087.40 72.44175
1087.50 72.44175
1087.60 72.44175
1087.70 72.44175
1087.80 72.44175
1087.90 72.44175
1088.00 72.44175
1088.10 72.44175
1088.20 72.44175
1088.30 72.44175
1088.40 72.44175
1088.50 72.44175
1088.60 72.44175
1088.70 72.44175
1088.80 72.44175
1088.90 72.44175
1089.00 72.44175
1089.10 72.44175
1089.20 72.44175
1089.30 72.44175
1089.40 72.44175
1089.50 72.44175
1089.60 72.44175
1089.70 72.44175
1089.80 72.44175
1089.90 72.44175
1090.00 72.44175
1090.10 72.44175
1090.20 72.44175
1090.30 72.44175
1090.40 72.44175
1090.50 72.44175
1090.60 72.44175
1090.70 72.44175
1090.80 72.44175
1090.90 72.44175
1091.00 72.44175
1091.10 72.44175
1091.20 72.44175
1091.30 72.44175
1091.40 72.44175
1091.50 72.44175
1091.60 72.44175
1091.70 72.44175
1091.80 72.44175
1091.90 72.44175
1092.00 72.44175
1092.10 72.44175
1092.20 72.44175
1092.30 72.44175
1092.40 72.44175
1092.50 72.44175
1092.60 72.44175
1092.70 72.44175
1092.80 72.44175
1092.90 72.44175
1093.00 72.44175
1093.10 72.44175
1093.20 72.44175
1093.30 72.44175
1093.40 72.44175
1093.50 72.44175
1093.60 72.44175
1093.70 72.44175
1093.80 72.44175
1093.90 72.44175
1094.00 72.44175
1094.10 72.44175
1094.20 72.44175
1094.30 72.44175
1094.40 72.44175
1094.50 72.44175
1094.60 72.44175
1094.70 72.44175
1094.80 72.44175
1094.90 72.44175
1095.00 72.44175
1095.10 72.44175
1095.20 72.44175
1095.30 72.44175
1095.40 72.44175
1095.50 72.44175
1095.60 72.44175
1095.70 72.44175
1095.80 72.44175
1095.90 72.44175
1096.00 72.44175
1096.10 72.44175
1096.20 72.44175
1096.30 72.44175
1096.40 72.44175
1096.50 72.44175
1096.60 72.44175
1096.70 72.44175
1096.80 72.44175
1096.90 72.44175
1097.00 72.44175
1097.10 72.44175
1097.20 72.44175
1097.30 72.44175
1097.40 72.44175
1097.50 72.44175
1097.60 72.44175
1097.70 72.44175
1097.80 72.44175
1097.90 72.44175
1098.00 72.44175
1098.10 72.44175
1098.20 72.44175
1098.30 72.44175
1098.40 72.44175
1098.50 72.44175
1098.60 72.44175
1098.70 72.44175
1098.80 72.44175
1098.90 72.44175
1099.00 72.44175
1099.10 72.44175
1099.20 72.44175
1099.30 72.44175
1099.40 72.44175
1099.50 72.44175
1099.60 72.44175
1099.70 72.44175
1099.80 72.44175
1099.90 72.44175
1100.00 72.44175
1100.10 72.44175
1100.20 72.44175
1100.30 72.44175
1100.40 72.44175
1100.50 72.44175
1100.60 72.44175
1100.70 72.44175
1100.80 72.44175
1100.90 72.44175
1101.00 72.44175
1101.10 72.44175
1101.20 72.44175
1101.30 72.44175
1101.40 72.44175
1101.50 72.44175
1101.60 72.44175
1101.70 72.44175
1101.80 72.44175
1101.90 72.44175
1102.00 72.44175
1102.10 72.44175
1102.20 72.44175
1102.30 72.44175
1102.40 72.44175
1102.50 72.44175
1102.60 72.44175
1102.70 72.44175
1102.80 72.44175
1102.90 72.44175
1103.00 72.44175
1103.10 72.44175
1103.20 72.44175
1103.30 72.44175
1103.40 72.44175
1103.50 72.44175
1103.60 72.44175
1103.70 72.44175
1103.80 72.44175
1103.90 72.44175
1104.00 72.44175
1104.10 72.44175
1104.20 72.44175
1104.30 72.44175
1104.40 72.44175
1104.50 72.44175
1104.60 72.44175
1104.70 72.44175
1104.80 72.44175
1104.90 72.44175
1105.00 72.44175
1105.10 72.44175
1105.20 72.44175
1105.30 72.44175
1105.40 72.44175
1105.50 72.44175
1105.60 72.44175
1105.70 72.44175
1105.80 72.44175
1105.90 72.44175
1106.00 72.44175
1106.10 72.44175
1106.20 72.44175
1106.30 72.44175
1106.40 72.44175
1106.50 72.44175
1106.60 72.44175
1106.70 72.44175
1106.80 72.44175
1106.90 72.44175
1107.00 72.44175
1107.10 72.44175
1107.20 72.44175
1107.30 72.44175
1107.40 72.44175
1107.50 72.44175
1107.60 72.44175
1107.70 72.44175
1107.80 72.44175
1107.90 72.44175
1108.00 72.44175
1108.10 72.44175
1108.20 72.44175
1108.30 72.44175
1108.40 72.44175
1108.50 72.44175
1108.60 72.44175
1108.70 72.44175
1108.80 72.44175
1108.90 72.44175
1109.00 72.44175
1109.10 72.44175
1109.20 72.44175
1109.30 72.44175
1109.40 72.44175
1109.50 72.44175
1109.60 72.44175
1109.70 72.44175
1109.80 72.44175
1109.90 72.44175
1110.00 72.44175
1110.10 72.44175
1110.20 72.44175
1110.30 72.44175
1110.40 72.44175
1110.50 72.44175
1110.60 72.44175
1110.70 72.44175
1110.80 72.44175
1110.90 72.44175
1111.00 72.44175
1111.10 72.44175
1111.20 72.44175
1111.30 72.44175
1111.40 72.44175
1111.50 72.44175
1111.60 72.44175
1111.70 72.44175
1111.80 72.44175
1111.90 72.44175
1112.00 72.44175
1112.10 72.44175
1112.20 72.44175
1112.30 72.44175
1112.40 72.44175
1112.50 72.44175
1112.60 72.44175
1112.70 72.44175
1112.80 72.44175
1112.90 72.44175
1113.00 72.44175
1113.10 72.44175
1113.20 72.44175
1113.30 72.44175
1113.40 72.44175
1113.50 72.44175
1113.60 72.44175
1113.70 72.44175
1113.80 72.44175
1113.90 72.44175
1114.00 72.44175
1114.10 72.44175
1114.20 72.44175
1114.30 72.44175
1114.40 72.44175
1114.50 72.44175
1114.60 72.44175
1114.70 72.44175
1114.80 72.44175
1114.90 72.44175
1115.00 72.44175
1115.10 72.44175
1115.20 72.44175
1115.30 72.44175
1115.40 72.44175
1115.50 72.44175
1115.60 72.44175
1115.70 72.44175
1115.80 72.44175
1115.90 72.44175
1116.00 72.44175
1116.10 72.44175
1116.20 72.44175
1116.30 72.44175
1116.40 72.44175
1116.50 72.44175
1116.60 72.44175
1116.70 72.44175
1116.80 72.44175
1116.90 72.44175
1117.00 72.44175
1117.10 72.44175
1117.20 72.44175
1117.30 72.44175
1117.40 72.44175
1117.50 72.44175
1117.60 72.44175
1117.70 72.44175
1117.80 72.44175
1117.90 72.44175
1118.00 72.44175
1118.10 72.44175
1118.20 72.44175
1118.30 72.44175
1118.40 72.44175
1118.50 72.44175
1118.60 72.44175
1118.70 72.44175
1118.80 72.44175
1118.90 72.44175
1119.00 72.44175
1119.10 72.44175
1119.20 72.44175
1119.30 72.44175
1119.40 72.44175
1119.50 72.44175
1119.60 72.44175
1119.70 72.44175
1119.80 72.44175
1119.90 72.44175
1120.00 72.44175
1120.10 72.44175
1120.20 72.44175
1120.30 72.44175
1120.40 72.44175
1120.50 72.44175
1120.60 72.44175
1120.70 72.44175
1120.80 72.44175
1120.90 72.44175
1121.00 72.44175
1121.10 72.44175
1121.20 72.44175
1121.30 72.44175
1121.40 72.44175
1121.50 72.44175
1121.60 72.44175
1121.70 72.44175
1121.80 72.44175
1121.90 72.44175
1122.00 72.44175
1122.10 72.44175
1122.20 72.44175
1122.30 72.44175
1122.40 72.44175
1122.50 72.44175
1122.60 72.44175
1122.70 72.44175
1122.80 72.44175
1122.90 72.44175
1123.00 72.44175
1123.10 72.44175
1123.20 72.44175
1123.30 72.44175
1123.40 72.44175
1123.50 72.44175
1123.60 72.44175
1123.70 72.44175
1123.80 72.44175
1123.90 72.44175
1124.00 72.44175
1124.10 72.44175
1124.20 72.44175
1124.30 72.44175
1124.40 72.44175
1124.50 72.44175
1124.60 72.44175
1124.70 72.44175
1124.80 72.44175
1124.90 72.44175
1125.00 72.44175
1125.10 72.44175
1125.20 72.44175
1125.30 72.44175
1125.40 72.44175
1125.50 72.44175
1125.60 72.44175
1125.70 72.44175
1125.80 72.44175
1125.90 72.44175
1126.00 72.44175
1126.10 72.44175
1126.20 72.44175
1126.30 72.44175
1126.40 72.44175
1126.50 72.44175
1126.60 72.44175
1126.70 72.44175
1126.80 72.44175
1126.90 72.44175
1127.00 72.44175
1127.10 72.44175
1127.20 72.44175
1127.30 72.44175
1127.40 72.44175
1127.50 72.44175
1127.60 72.44175
1127.70 72.44175
1127.80 72.44175
1127.90 72.44175
1128.00 72.44175
1128.10 72.44175
1128.20 72.44175
1128.30 72.44175
1128.40 72.44175
1128.50 72.44175
1128.60 72.44175
1128.70 72.44175
1128.80 72.44175
1128.90 72.44175
1129.00 72.44175
1129.10 72.44175
1129.20 72.44175
1129.30 72.44175
1129.40 72.44175
1129.50 72.44175
1129.60 72.44175
1129.70 72.44175
1129.80 72.44175
1129.90 72.44175
1130.00 72.44175
1130.10 72.44175
1130.20 72.44175
1130.30 72.44175
1130.40 72.44175
1130.50 72.44175
1130.60 72.44175
1130.70 72.44175
1130.80 72.44175
1130.90 72.44175
1131.00 72.44175
1131.10 72.44175
1131.20 72.44175
1131.30 72.44175
1131.40 72.44175
1131.50 72.44175
1131.60 72.44175
1131.70 72.44175
1131.80 72.44175
1131.90 72.44175
1132.00 72.44175
1132.10 72.44175
1132.20 72.44175
1132.30 72.44175
1132.40 72.44175
1132.50 72.44175
1132.60 72.44175
1132.70 72.44175
1132.80 72.44175
1132.90 72.44175
1133.00 72.44175
1133.10 72.44175
1133.20 72.44175
1133.30 72.44175
1133.40 72.44175
1133.50 72.44175
1133.60 72.44175
1133.70 72.44175
1133.80 72.44175
1133.90 72.44175
1134.00 72.44175
1134.10 72.44175
1134.20 72.44175
1134.30 72.44175
1134.40 72.44175
1134.50 72.44175
1134.60 72.44175
1134.70 72.44175
1134.80 72.44175
1134.90 72.44175
1135.00 72.44175
1135.10 72.44175
1135.20 72.44175
1135.30 72.44175
1135.40 72.44175
1135.50 72.44175
1135.60 72.44175
1135.70 72.44175
1135.80 72.44175
1135.90 72.44175
1136.00 72.44175
1136.10 72.44175
1136.20 72.44175
1136.30 72.44175
1136.40 72.44175
1136.50 72.44175
1136.60 72.44175
1136.70 72.44175
1136.80 72.44175
1136.90 72.44175
1137.00 72.44175
1137.10 72.44175
1137.20 72.44175
1137.30 72.44175
1137.40 72.44175
1137.50 72.44175
1137.60 72.44175
1137.70 72.44175
1137.80 72.44175
1137.90 72.44175
1138.00 72.44175
1138.10 72.44175
1138.20 72.44175
1138.30 72.44175
1138.40 72.44175
1138.50 72.44175
1138.60 72.44175
1138.70 72.44175
1138.80 72.44175
1138.90 72.44175
1139.00 72.44175
1139.10 72.44175
1139.20 72.44175
1139.30 72.44175
1139.40 72.44175
1139.50 72.44175
1139.60 72.44175
1139.70 72.44175
1139.80 72.44175
1139.90 72.44175
1140.00 72.44175
1140.10 72.44175
1140.20 72.44175
1140.30 72.44175
1140.40 72.44175
1140.50 72.44175
1140.60 72.44175
1140.70 72.44175
1140.80 72.44175
1140.90 72.44175
1141.00 72.44175
1141.10 72.44175
1141.20 72.44175
1141.30 72.44175
1141.40 72.44175
1141.50 72.44175
1141.60 72.44175
1141.70 72.44175
1141.80 72.44175
1141.90 72.44175
1142.00 72.44175
1142.10 72.44175
1142.20 72.44175
1142.30 72.44175
1142.40 72.44175
1142.50 72.44175
1142.60 72.44175
1142.70 72.44175
1142.80 72.44175
1142.90 72.44175
1143.00 72.44175
1143.10 72.44175
1143.20 72.44175
1143.30 72.44175
1143.40 72.44175
1143.50 72.44175
1143.60 72.44175
1143.70 72.44175
1143.80 72.44175
1143.90 72.44175
1144.00 72.44175
1144.10 72.44175
1144.20 72.44175
1144.30 72.44175
1144.40 72.44175
1144.50 72.44175
1144.60 72.44175
1144.70 72.44175
1144.80 72.44175
1144.90 72.44175
1145.00 72.44175
1145.10 72.44175
1145.20 72.44175
1145.30 72.44175
1145.40 72.44175
1145.50 72.44175
1145.60 72.44175
1145.70 72.44175
1145.80 72.44175
1145.90 72.44175
1146.00 72.44175
1146.10 72.44175
1146.20 72.44175
1146.30 72.44175
1146.40 72.44175
1146.50 72.44175
1146.60 72.44175
1146.70 72.44175
1146.80 72.44175
1146.90 72.44175
1147.00 72.44175
1147.10 72.44175
1147.20 72.44175
1147.30 72.44175
1147.40 72.44175
1147.50 72.44175
1147.60 72.44175
1147.70 72.44175
1147.80 72.44175
1147.90 72.44175
1148.00 72.44175
1148.10 72.44175
1148.20 72.44175
1148.30 72.44175
1148.40 72.44175
1148.50 72.44175
1148.60 72.44175
1148.70 72.44175
1148.80 72.44175
1148.90 72.44175
1149.00 72.44175
1149.10 72.44175
1149.20 72.44175
1149.30 72.44175
1149.40 72.44175
1149.50 72.44175
1149.60 72.44175
1149.70 72.44175
1149.80 72.44175
1149.90 72.44175
1150.00 72.44175
1150.10 72.44175
1150.20 72.44175
1150.30 72.44175
1150.40 72.44175
1150.50 72.44175
1150.60 72.44175
1150.70 72.44175
1150.80 72.44175
1150.90 72.44175
1151.00 72.44175
1151.10 72.44175
1151.20 72.44175
1151.30 72.44175
1151.40 72.44175
1151.50 72.44175
1151.60 72.44175
1151.70 72.44175
1151.80 72.44175
1151.90 72.44175
1152.00 72.44175
1152.10 72.44175
1152.20 72.44175
1152.30 72.44175
1152.40 72.44175
1152.50 72.44175
1152.60 72.44175
1152.70 72.44175
1152.80 72.44175
1152.90 72.44175
1153.00 72.44175
1153.10 72.44175
1153.20 72.44175
1153.30 72.44175
1153.40 72.44175
1153.50 72.44175
1153.60 72.44175
1153.70 72.44175
1153.80 72.44175
1153.90 72.44175
1154.00 72.44175
1154.10 72.44175
1154.20 72.44175
1154.30 72.44175
1154.40 72.44175
1154.50 72.44175
1154.60 72.44175
1154.70 72.44175
1154.80 72.44175
1154.90 72.44175
1155.00 72.44175
1155.10 72.44175
1155.20 72.44175
1155.30 72.44175
1155.40 72.44175
1155.50 72.44175
1155.60 72.44175
1155.70 72.44175
1155.80 72.44175
1155.90 72.44175
1156.00 72.44175
1156.10 72.44175
1156.20 72.44175
1156.30 72.44175
1156.40 72.44175
1156.50 72.44175
1156.60 72.44175
1156.70 72.44175
1156.80 72.44175
1156.90 72.44175
1157.00 72.44175
1157.10 72.44175
1157.20 72.44175
1157.30 72.44175
1157.40 72.44175
1157.50 72.44175
1157.60 72.44175
1157.70 72.44175
1157.80 72.44175
1157.90 72.44175
1158.00 72.44175
1158.10 72.44175
1158.20 72.44175
1158.30 72.44175
1158.40 72.44175
1158.50 72.44175
1158.60 72.44175
1158.70 72.44175
1158.80 72.44175
1158.90 72.44175
1159.00 72.44175
1159.10 72.44175
1159.20 72.44175
1159.30 72.44175
1159.40 72.44175
1159.50 72.44175
1159.60 72.44175
1159.70 72.44175
1159.80 72.44175
1159.90 72.44175
1160.00 72.44175
1160.10 72.44175
1160.20 72.44175
1160.30 72.44175
1160.40 72.44175
1160.50 72.44175
1160.60 72.44175
1160.70 72.44175
1160.80 72.44175
1160.90 72.44175
1161.00 72.44175
1161.10 72.44175
1161.20 72.44175
1161.30 72.44175
1161.40 72.44175
1161.50 72.44175
1161.60 72.44175
1161.70 72.44175
1161.80 72.44175
1161.90 72.44175
1162.00 72.44175
1162.10 72.44175
1162.20 72.44175
1162.30 72.44175
1162.40 72.44175
1162.50 72.44175
1162.60 72.44175
1162.70 72.44175
1162.80 72.44175
1162.90 72.44175
1163.00 72.44175
1163.10 72.44175
1163.20 72.44175
1163.30 72.44175
1163.40 72.44175
1163.50 72.44175
1163.60 72.44175
1163.70 72.44175
1163.80 72.44175
1163.90 72.44175
1164.00 72.44175
1164.10 72.44175
1164.20 72.44175
1164.30 72.44175
1164.40 72.44175
1164.50 72.44175
1164.60 72.44175
1164.70 72.44175
1164.80 72.44175
1164.90 72.44175
1165.00 72.44175
1165.10 72.44175
1165.20 72.44175
1165.30 72.44175
1165.40 72.44175
1165.50 72.44175
1165.60 72.44175
1165.70 72.44175
1165.80 72.44175
1165.90 72.44175
1166.00 72.44175
1166.10 72.44175
1166.20 72.44175
1166.30 72.44175
1166.40 72.44175
1166.50 72.44175
1166.60 72.44175
1166.70 72.44175
1166.80 72.44175
1166.90 72.44175
1167.00 72.44175
1167.10 72.44175
1167.20 72.44175
1167.30 72.44175
1167.40 72.44175
1167.50 72.44175
1167.60 72.44175
1167.70 72.44175
1167.80 72.44175
1167.90 72.44175
1168.00 72.44175
1168.10 72.44175
1168.20 72.44175
1168.30 72.44175
1168.40 72.44175
1168.50 72.44175
1168.60 72.44175
1168.70 72.44175
1168.80 72.44175
1168.90 72.44175
1169.00 72.44175
1169.10 72.44175
1169.20 72.44175
1169.30 72.44175
1169.40 72.44175
1169.50 72.44175
1169.60 72.44175
1169.70 72.44175
1169.80 72.44175
1169.90 72.44175
1170.00 72.44175
1170.10 72.44175
1170.20 72.44175
1170.30 72.44175
1170.40 72.44175
1170.50 72.44175
1170.60 72.44175
1170.70 72.44175
1170.80 72.44175
1170.90 72.44175
1171.00 72.44175
1171.10 72.44175
1171.20 72.44175
1171.30 72.44175
1171.40 72.44175
1171.50 72.44175
1171.60 72.44175
1171.70 72.44175
1171.80 72.44175
1171.90 72.44175
1172.00 72.44175
1172.10 72.44175
1172.20 72.44175
1172.30 72.44175
1172.40 72.44175
1172.50 72.44175
1172.60 72.44175
1172.70 72.44175
1172.80 72.44175
1172.90 72.44175
1173.00 72.44175
1173.10 72.44175
1173.20 72.44175
1173.30 72.44175
1173.40 72.44175
1173.50 72.44175
1173.60 72.44175
1173.70 72.44175
1173.80 72.44175
1173.90 72.44175
1174.00 72.44175
1174.10 72.44175
1174.20 72.44175
1174.30 72.44175
1174.40 72.44175
1174.50 72.44175
1174.60 72.44175
1174.70 72.44175
1174.80 72.44175
1174.90 72.44175
1175.00 72.44175
1175.10 72.44175
1175.20 72.44175
1175.30 72.44175
1175.40 72.44175
1175.50 72.44175
1175.60 72.44175
1175.70 72.44175
1175.80 72.44175
1175.90 72.44175
1176.00 72.44175
1176.10 72.44175
1176.20 72.44175
1176.30 72.44175
1176.40 72.44175
1176.50 72.44175
1176.60 72.44175
1176.70 72.44175
1176.80 72.44175
1176.90 72.44175
1177.00 72.44175
1177.10 72.44175
1177.20 72.44175
1177.30 72.44175
1177.40 72.44175
1177.50 72.44175
1177.60 72.44175
1177.70 72.44175
1177.80 72.44175
1177.90 72.44175
1178.00 72.44175
1178.10 72.44175
1178.20 72.44175
1178.30 72.44175
1178.40 72.44175
1178.50 72.44175
1178.60 72.44175
1178.70 72.44175
1178.80 72.44175
1178.90 72.44175
1179.00 72.44175
1179.10 72.44175
1179.20 72.44175
1179.30 72.44175
1179.40 72.44175
1179.50 72.44175
1179.60 72.44175
1179.70 72.44175
1179.80 72.44175
1179.90 72.44175
1180.00 72.44175
1180.10 72.44175
1180.20 72.44175
1180.30 72.44175
1180.40 72.44175
1180.50 72.44175
1180.60 72.44175
1180.70 72.44175
1180.80 72.44175
1180.90 72.44175
1181.00 72.44175
1181.10 72.44175
1181.20 72.44175
1181.30 72.44175
1181.40 72.44175
1181.50 72.44175
1181.60 72.44175
1181.70 72.44175
1181.80 72.44175
1181.90 72.44175
1182.00 72.44175
1182.10 72.44175
1182.20 72.44175
1182.30 72.44175
1182.40 72.44175
1182.50 72.44175
1182.60 72.44175
1182.70 72.44175
1182.80 72.44175
1182.90 72.44175
1183.00 72.44175
1183.10 72.44175
1183.20 72.44175
1183.30 72.44175
1183.40 72.44175
1183.50 72.44175
1183.60 72.44175
1183.70 72.44175
1183.80 72.44175
1183.90 72.44175
1184.00 72.44175
1184.10 72.44175
1184.20 72.44175
1184.30 72.44175
1184.40 72.44175
1184.50 72.44175
1184.60 72.44175
1184.70 72.44175
1184.80 72.44175
1184.90 72.44175
1185.00 72.44175
1185.10 72.44175
1185.20 72.44175
1185.30 72.44175
1185.40 72.44175
1185.50 72.44175
1185.60 72.44175
1185.70 72.44175
1185.80 72.44175
1185.90 72.44175
1186.00 72.44175
1186.10 72.44175
1186.20 72.44175
1186.30 72.44175
1186.40 72.44175
1186.50 72.44175
1186.60 72.44175
1186.70 72.44175
1186.80 72.44175
1186.90 72.44175
1187.00 72.44175
1187.10 72.44175
1187.20 72.44175
1187.30 72.44175
1187.40 72.44175
1187.50 72.44175
1187.60 72.44175
1187.70 72.44175
1187.80 72.44175
1187.90 72.44175
1188.00 72.44175
1188.10 72.44175
1188.20 72.44175
1188.30 72.44175
1188.40 72.44175
1188.50 72.44175
1188.60 72.44175
1188.70 72.44175
1188.80 72.44175
1188.90 72.44175
1189.00 72.44175
1189.10 72.44175
1189.20 72.44175
1189.30 72.44175
1189.40 72.44175
1189.50 72.44175
1189.60 72.44175
1189.70 72.44175
1189.80 72.44175
1189.90 72.44175
1190.00 72.44175
1190.10 72.44175
1190.20 72.44175
1190.30 72.44175
1190.40 72.44175
1190.50 72.44175
1190.60 72.44175
1190.70 72.44175
1190.80 72.44175
1190.90 72.44175
1191.00 72.44175
1191.10 72.44175
1191.20 72.44175
1191.30 72.44175
1191.40 72.44175
1191.50 72.44175
1191.60 72.44175
1191.70 72.44175
1191.80 72.44175
1191.90 72.44175
1192.00 72.44175
1192.10 72.44175
1192.20 72.44175
1192.30 72.44175
1192.40 72.44175
1192.50 72.44175
1192.60 72.44175
1192.70 72.44175
1192.80 72.44175
1192.90 72.44175
1193.00 72.44175
1193.10 72.44175
1193.20 72.44175
1193.30 72.44175
1193.40 72.44175
1193.50 72.44175
1193.60 72.44175
1193.70 72.44175
1193.80 72.44175
1193.90 72.44175
1194.00 72.44175
1194.10 72.44175
1194.20 72.44175
1194.30 72.44175
1194.40 72.44175
1194.50 72.44175
1194.60 72.44175
1194.70 72.44175
1194.80 72.44175
1194.90 72.44175
1195.00 72.44175
1195.10 72.44175
1195.20 72.44175
1195.30 72.44175
1195.40 72.44175
1195.50 72.44175
1195.60 72.44175
1195.70 72.44175
1195.80 72.44175
1195.90 72.44175
1196.00 72.44175
1196.10 72.44175
1196.20 72.44175
1196.30 72.44175
1196.40 72.44175
1196.50 72.44175
1196.60 72.44175
1196.70 72.44175
1196.80 72.44175
1196.90 72.44175
1197.00 72.44175
1197.10 72.44175
1197.20 72.44175
1197.30 72.44175
1197.40 72.44175
1197.50 72.44175
1197.60 72.44175
1197.70 72.44175
1197.80 72.44175
1197.90 72.44175
1198.00 72.44175
1198.10 72.44175
1198.20 72.44175
1198.30 72.44175
1198.40 72.44175
1198.50 72.44175
1198.60 72.44175
1198.70 72.44175
1198.80 72.44175
1198.90 72.44175
1199.00 72.44175
1199.10 72.44175
1199.20 72.44175
1199.30 72.44175
1199.40 72.44175
1199.50 72.44175
1199.60 72.44175
1199.70 72.44175
1199.80 72.44175
1199.90 72.44175
1200.00 72.44175
1200.10 72.44175
1200.20 72.44175
1200.30 72.44175
1200.40 72.44175
1200.50 72.44175
1200.60 72.44175
1200.70 72.44175
1200.80 72.44175
1200.90 72.44175
1201.00 72.44175
1201.10 72.44175
1201.20 72.44175
1201.30 72.44175
1201.40 72.44175
1201.50 72.44175
1201.60 72.44175
1201.70 72.44175
1201.80 72.44175
1201.90 72.44175
1202.00 72.44175
1202.10 72.44175
1202.20 72.44175
1202.30 72.44175
1202.40 72.44175
1202.50 72.44175
1202.60 72.44175
1202.70 72.44175
1202.80 72.44175
1202.90 72.44175
1203.00 72.44175
1203.10 72.44175
1203.20 72.44175
1203.30 72.44175
1203.40 72.44175
1203.50 72.44175
1203.60 72.44175
1203.70 72.44175
1203.80 72.44175
1203.90 72.44175
1204.00 72.44175
1204.10 72.44175
1204.20 72.44175
1204.30 72.44175
1204.40 72.44175
1204.50 72.44175
1204.60 72.44175
1204.70 72.44175
1204.80 72.44175
1204.90 72.44175
1205.00 72.44175
1205.10 72.44175
1205.20 72.44175
1205.30 72.44175
1205.40 72.44175
1205.50 72.44175
1205.60 72.44175
1205.70 72.44175
1205.80 72.44175
1205.90 72.44175
1206.00 72.44175
1206.10 72.44175
1206.20 72.44175
1206.30 72.44175
1206.40 72.44175
1206.50 72.44175
1206.60 72.44175
1206.70 72.44175
1206.80 72.44175
1206.90 72.44175
1207.00 72.44175
1207.10 72.44175
1207.20 72.44175
1207.30 72.44175
1207.40 72.44175
1207.50 72.44175
1207.60 72.44175
1207.70 72.44175
1207.80 72.44175
1207.90 72.44175
1208.00 72.44175
1208.10 72.44175
1208.20 72.44175
1208.30 72.44175
1208.40 72.44175
1208.50 72.44175
1208.60 72.44175
1208.70 72.44175
1208.80 72.44175
1208.90 72.44175
1209.00 72.44175
1209.10 72.44175
1209.20 72.44175
1209.30 72.44175
1209.40 72.44175
1209.50 72.44175
1209.60 72.44175
1209.70 72.44175
1209.80 72.44175
1209.90 72.44175
1210.00 72.44175
1210.10 72.44175
1210.20 72.44175
1210.30 72.44175
1210.40 72.44175
1210.50 72.44175
1210.60 72.44175
1210.70 72.44175
1210.80 72.44175
1210.90 72.44175
1211.00 72.44175
1211.10 72.44175
1211.20 72.44175
1211.30 72.44175
1211.40 72.44175
1211.50 72.44175
1211.60 72.44175
1211.70 72.44175
1211.80 72.44175
1211.90 72.44175
1212.00 72.44175
1212.10 72.44175
1212.20 72.44175
1212.30 72.44175
1212.40 72.44175
1212.50 72.44175
1212.60 72.44175
1212.70 72.44175
1212.80 72.44175
1212.90 72.44175
1213.00 72.44175
1213.10 72.44175
1213.20 72.44175
1213.30 72.44175
1213.40 72.44175
1213.50 72.44175
1213.60 72.44175
1213.70 72.44175
1213.80 72.44175
1213.90 72.44175
1214.00 72.44175
1214.10 72.44175
1214.20 72.44175
1214.30 72.44175
1214.40 72.44175
1214.50 72.44175
1214.60 72.44175
1214.70 72.44175
1214.80 72.44175
1214.90 72.44175
1215.00 72.44175
1215.10 72.44175
1215.20 72.44175
1215.30 72.44175
1215.40 72.44175
1215.50 72.44175
1215.60 72.44175
1215.70 72.44175
1215.80 72.44175
1215.90 72.44175
1216.00 72.44175
1216.10 72.44175
1216.20 72.44175
1216.30 72.44175
1216.40 72.44175
1216.50 72.44175
1216.60 72.44175
1216.70 72.44175
1216.80 72.44175
1216.90 72.44175
1217.00 72.44175
1217.10 72.44175
1217.20 72.44175
1217.30 72.44175
1217.40 72.44175
1217.50 72.44175
1217.60 72.44175
1217.70 72.44175
1217.80 72.44175
1217.90 72.44175
1218.00 72.44175
1218.10 72.44175
1218.20 72.44175
1218.30 72.44175
1218.40 72.44175
1218.50 72.44175
1218.60 72.44175
1218.70 72.44175
1218.80 72.44175
1218.90 72.44175
1219.00 72.44175
1219.10 72.44175
1219.20 72.44175
1219.30 72.44175
1219.40 72.44175
1219.50 72.44175
1219.60 72.44175
1219.70 72.44175
1219.80 72.44175
1219.90 72.44175
1220.00 72.44175
1220.10 72.44175
1220.20 72.44175
1220.30 72.44175
1220.40 72.44175
1220.50 72.44175
1220.60 72.44175
1220.70 72.44175
1220.80 72.44175
1220.90 72.44175
1221.00 72.44175
1221.10 72.44175
1221.20 72.44175
1221.30 72.44175
1221.40 72.44175
1221.50 72.44175
1221.60 72.44175
1221.70 72.44175
1221.80 72.44175
1221.90 72.44175
1222.00 72.44175
1222.10 72.44175
1222.20 72.44175
1222.30 72.44175
1222.40 72.44175
1222.50 72.44175
1222.60 72.44175
1222.70 72.44175
1222.80 72.44175
1222.90 72.44175
1223.00 72.44175
1223.10 72.44175
1223.20 72.44175
1223.30 72.44175
1223.40 72.44175
1223.50 72.44175
1223.60 72.44175
1223.70 72.44175
1223.80 72.44175
1223.90 72.44175
1224.00 72.44175
1224.10 72.44175
1224.20 72.44175
1224.30 72.44175
1224.40 72.44175
1224.50 72.44175
1224.60 72.44175
1224.70 72.44175
1224.80 72.44175
1224.90 72.44175
1225.00 72.44175
1225.10 72.44175
1225.20 72.44175
1225.30 72.44175
1225.40 72.44175
1225.50 72.44175
1225.60 72.44175
1225.70 72.44175
1225.80 72.44175
1225.90 72.44175
1226.00 72.44175
1226.10 72.44175
1226.20 72.44175
1226.30 72.44175
1226.40 72.44175
1226.50 72.44175
1226.60 72.44175
1226.70 72.44175
1226.80 72.44175
1226.90 72.44175
1227.00 72.44175
1227.10 72.44175
1227.20 72.44175
1227.30 72.44175
1227.40 72.44175
1227.50 72.44175
1227.60 72.44175
1227.70 72.44175
1227.80 72.44175
1227.90 72.44175
1228.00 72.44175
1228.10 72.44175
1228.20 72.44175
1228.30 72.44175
1228.40 72.44175
1228.50 72.44175
1228.60 72.44175
1228.70 72.44175
1228.80 72.44175
1228.90 72.44175
1229.00 72.44175
1229.10 72.44175
1229.20 72.44175
1229.30 72.44175
1229.40 72.44175
1229.50 72.44175
1229.60 72.44175
1229.70 72.44175
1229.80 72.44175
1229.90 72.44175
1230.00 72.44175
1230.10 72.44175
1230.20 72.44175
1230.30 72.44175
1230.40 72.44175
1230.50 72.44175
1230.60 72.44175
1230.70 72.44175
1230.80 72.44175
1230.90 72.44175
1231.00 72.44175
1231.10 72.44175
1231.20 72.44175
1231.30 72.44175
1231.40 72.44175
1231.50 72.44175
1231.60 72.44175
1231.70 72.44175
1231.80 72.44175
1231.90 72.44175
1232.00 72.44175
1232.10 72.44175
1232.20 72.44175
1232.30 72.44175
1232.40 72.44175
1232.50 72.44175
1232.60 72.44175
1232.70 72.44175
1232.80 72.44175
1232.90 72.44175
1233.00 72.44175
1233.10 72.44175
1233.20 72.44175
1233.30 72.44175
1233.40 72.44175
1233.50 72.44175
1233.60 72.44175
1233.70 72.44175
1233.80 72.44175
1233.90 72.44175
1234.00 72.44175
1234.10 72.44175
1234.20 72.44175
1234.30 72.44175
1234.40 72.44175
1234.50 72.44175
1234.60 72.44175
1234.70 72.44175
1234.80 72.44175
1234.90 72.44175
1235.00 72.44175
1235.10 72.44175
1235.20 72.44175
1235.30 72.44175
1235.40 72.44175
1235.50 72.44175
1235.60 72.44175
1235.70 72.44175
1235.80 72.44175
1235.90 72.44175
1236.00 72.44175
1236.10 72.44175
1236.20 72.44175
1236.30 72.44175
1236.40 72.44175
1236.50 72.44175
1236.60 72.44175
1236.70 72.44175
1236.80 72.44175
1236.90 72.44175
1237.00 72.44175
1237.10 72.44175
1237.20 72.44175
1237.30 72.44175
1237.40 72.44175
1237.50 72.44175
1237.60 72.44175
1237.70 72.44175
1237.80 72.44175
1237.90 72.44175
1238.00 72.44175
1238.10 72.44175
1238.20 72.44175
1238.30 72.44175
1238.40 72.44175
1238.50 72.44175
1238.60 72.44175
1238.70 72.44175
1238.80 72.44175
1238.90 72.44175
1239.00 72.44175
1239.10 72.44175
1239.20 72.44175
1239.30 72.44175
1239.40 72.44175
1239.50 72.44175
1239.60 72.44175
1239.70 72.44175
1239.80 72.44175
1239.90 72.44175
1240.00 72.44175
1240.10 72.44175
1240.20 72.44175
1240.30 72.44175
1240.40 72.44175
1240.50 72.44175
1240.60 72.44175
1240.70 72.44175
1240.80 72.44175
1240.90 72.44175
1241.00 72.44175
1241.10 72.44175
1241.20 72.44175
1241.30 72.44175
1241.40 72.44175
1241.50 72.44175
1241.60 72.44175
1241.70 72.44175
1241.80 72.44175
1241.90 72.44175
1242.00 72.44175
1242.10 72.44175
1242.20 72.44175
1242.30 72.44175
1242.40 72.44175
1242.50 72.44175
1242.60 72.44175
1242.70 72.44175
1242.80 72.44175
1242.90 72.44175
1243.00 72.44175
1243.10 72.44175
1243.20 72.44175
1243.30 72.44175
1243.40 72.44175
1243.50 72.44175
1243.60 72.44175
1243.70 72.44175
1243.80 72.44175
1243.90 72.44175
1244.00 72.44175
1244.10 72.44175
1244.20 72.44175
1244.30 72.44175
1244.40 72.44175
1244.50 72.44175
1244.60 72.44175
1244.70 72.44175
1244.80 72.44175
1244.90 72.44175
1245.00 72.44175
1245.10 72.44175
1245.20 72.44175
1245.30 72.44175
1245.40 72.44175
1245.50 72.44175
1245.60 72.44175
1245.70 72.44175
1245.80 72.44175
1245.90 72.44175
1246.00 72.44175
1246.10 72.44175
1246.20 72.44175
1246.30 72.44175
1246.40 72.44175
1246.50 72.44175
1246.60 72.44175
1246.70 72.44175
1246.80 72.44175
1246.90 72.44175
1247.00 72.44175
1247.10 72.44175
1247.20 72.44175
1247.30 72.44175
1247.40 72.44175
1247.50 72.44175
1247.60 72.44175
1247.70 72.44175
1247.80 72.44175
1247.90 72.44175
1248.00 72.44175
1248.10 72.44175
1248.20 72.44175
1248.30 72.44175
1248.40 72.44175
1248.50 72.44175
1248.60 72.44175
1248.70 72.44175
1248.80 72.44175
1248.90 72.44175
1249.00 72.44175
1249.10 72.44175
1249.20 72.44175
1249.30 72.44175
1249.40 72.44175
1249.50 72.44175
1249.60 72.44175
1249.70 72.44175
1249.80 72.44175
1249.90 72.44175
1250.00 72.44175
1250.10 72.44175
1250.20 72.44175
1250.30 72.44175
1250.40 72.44175
1250.50 72.44175
1250.60 72.44175
1250.70 72.44175
1250.80 72.44175
1250.90 72.44175
1251.00 72.44175
1251.10 72.44175
1251.20 72.44175
1251.30 72.44175
1251.40 72.44175
1251.50 72.44175
1251.60 72.44175
1251.70 72.44175
1251.80 72.44175
1251.90 72.44175
1252.00 72.44175
1252.10 72.44175
1252.20 72.44175
1252.30 72.44175
1252.40 72.44175
1252.50 72.44175
1252.60 72.44175
1252.70 72.44175
1252.80 72.44175
1252.90 72.44175
1253.00 72.44175
1253.10 72.44175
1253.20 72.44175
1253.30 72.44175
1253.40 72.44175
1253.50 72.44175
1253.60 72.44175
1253.70 72.44175
1253.80 72.44175
1253.90 72.44175
1254.00 72.44175
1254.10 72.44175
1254.20 72.44175
1254.30 72.44175
1254.40 72.44175
1254.50 72.44175
1254.60 72.44175
1254.70 72.44175
1254.80 72.44175
1254.90 72.44175
1255.00 72.44175
1255.10 72.44175
1255.20 72.44175
1255.30 72.44175
1255.40 72.44175
1255.50 72.44175
1255.60 72.44175
1255.70 72.44175
1255.80 72.44175
1255.90 72.44175
1256.00 72.44175
1256.10 72.44175
1256.20 72.44175
1256.30 72.44175
1256.40 72.44175
1256.50 72.44175
1256.60 72.44175
1256.70 72.44175
1256.80 72.44175
1256.90 72.44175
1257.00 72.44175
1257.10 72.44175
1257.20 72.44175
1257.30 72.44175
1257.40 72.44175
1257.50 72.44175
1257.60 72.44175
1257.70 72.44175
1257.80 72.44175
1257.90 72.44175
1258.00 72.44175
1258.10 72.44175
1258.20 72.44175
1258.30 72.44175
1258.40 72.44175
1258.50 72.44175
1258.60 72.44175
1258.70 72.44175
1258.80 72.44175
1258.90 72.44175
1259.00 72.44175
1259.10 72.44175
1259.20 72.44175
1259.30 72.44175
1259.40 72.44175
1259.50 72.44175
1259.60 72.44175
1259.70 72.44175
1259.80 72.44175
1259.90 72.44175
1260.00 72.44175
1260.10 72.44175
1260.20 72.44175
1260.30 72.44175
1260.40 72.44175
1260.50 72.44175
1260.60 72.44175
1260.70 72.44175
1260.80 72.44175
1260.90 72.44175
1261.00 72.44175
1261.10 72.44175
1261.20 72.44175
1261.30 72.44175
1261.40 72.44175
1261.50 72.44175
1261.60 72.44175
1261.70 72.44175
1261.80 72.44175
1261.90 72.44175
1262.00 72.44175
1262.10 72.44175
1262.20 72.44175
1262.30 72.44175
1262.40 72.44175
1262.50 72.44175
1262.60 72.44175
1262.70 72.44175
1262.80 72.44175
1262.90 72.44175
1263.00 72.44175
1263.10 72.44175
1263.20 72.44175
1263.30 72.44175
1263.40 72.44175
1263.50 72.44175
1263.60 72.44175
1263.70 72.44175
1263.80 72.44175
1263.90 72.44175
1264.00 72.44175
1264.10 72.44175
1264.20 72.44175
1264.30 72.44175
1264.40 72.44175
1264.50 72.44175
1264.60 72.44175
1264.70 72.44175
1264.80 72.44175
1264.90 72.44175
1265.00 72.44175
1265.10 72.44175
1265.20 72.44175
1265.30 72.44175
1265.40 72.44175
1265.50 72.44175
1265.60 72.44175
1265.70 72.44175
1265.80 72.44175
1265.90 72.44175
1266.00 72.44175
1266.10 72.44175
1266.20 72.44175
1266.30 72.44175
1266.40 72.44175
1266.50 72.44175
1266.60 72.44175
1266.70 72.44175
1266.80 72.44175
1266.90 72.44175
1267.00 72.44175
1267.10 72.44175
1267.20 72.44175
1267.30 72.44175
1267.40 72.44175
1267.50 72.44175
1267.60 72.44175
1267.70 72.44175
1267.80 72.44175
1267.90 72.44175
1268.00 72.44175
1268.10 72.44175
1268.20 72.44175
1268.30 72.44175
1268.40 72.44175
1268.50 72.44175
1268.60 72.44175
1268.70 72.44175
1268.80 72.44175
1268.90 72.44175
1269.00 72.44175
1269.10 72.44175
1269.20 72.44175
1269.30 72.44175
1269.40 72.44175
1269.50 72.44175
1269.60 72.44175
1269.70 72.44175
1269.80 72.44175
1269.90 72.44175
1270.00 72.44175
1270.10 72.44175
1270.20 72.44175
1270.30 72.44175
1270.40 72.44175
1270.50 72.44175
1270.60 72.44175
1270.70 72.44175
1270.80 72.44175
1270.90 72.44175
1271.00 72.44175
1271.10 72.44175
1271.20 72.44175
1271.30 72.44175
1271.40 72.44175
1271.50 72.44175
1271.60 72.44175
1271.70 72.44175
1271.80 72.44175
1271.90 72.44175
1272.00 72.44175
1272.10 72.44175
1272.20 72.44175
1272.30 72.44175
1272.40 72.44175
1272.50 72.44175
1272.60 72.44175
1272.70 72.44175
1272.80 72.44175
1272.90 72.44175
1273.00 72.44175
1273.10 72.44175
1273.20 72.44175
1273.30 72.44175
1273.40 72.44175
1273.50 72.44175
1273.60 72.44175
1273.70 72.44175
1273.80 72.44175
1273.90 72.44175
1274.00 72.44175
1274.10 72.44175
1274.20 72.44175
1274.30 72.44175
1274.40 72.44175
1274.50 72.44175
1274.60 72.44175
1274.70 72.44175
1274.80 72.44175
1274.90 72.44175
1275.00 72.44175
1275.10 72.44175
1275.20 72.44175
1275.30 72.44175
1275.40 72.44175
1275.50 72.44175
1275.60 72.44175
1275.70 72.44175
1275.80 72.44175
1275.90 72.44175
1276.00 72.44175
1276.10 72.44175
1276.20 72.44175
1276.30 72.44175
1276.40 72.44175
1276.50 72.44175
1276.60 72.44175
1276.70 72.44175
1276.80 72.44175
1276.90 72.44175
1277.00 72.44175
1277.10 72.44175
1277.20 72.44175
1277.30 72.44175
1277.40 72.44175
1277.50 72.44175
1277.60 72.44175
1277.70 72.44175
1277.80 72.44175
1277.90 72.44175
1278.00 72.44175
1278.10 72.44175
1278.20 72.44175
1278.30 72.44175
1278.40 72.44175
1278.50 72.44175
1278.60 72.44175
1278.70 72.44175
1278.80 72.44175
1278.90 72.44175
1279.00 72.44175
1279.10 72.44175
1279.20 72.44175
1279.30 72.44175
1279.40 72.44175
1279.50 72.44175
1279.60 72.44175
1279.70 72.44175
1279.80 72.44175
1279.90 72.44175
1280.00 72.44175
1280.10 72.44175
1280.20 72.44175
1280.30 72.44175
1280.40 72.44175
1280.50 72.44175
1280.60 72.44175
1280.70 72.44175
1280.80 72.44175
1280.90 72.44175
1281.00 72.44175
1281.10 72.44175
1281.20 72.44175
1281.30 72.44175
1281.40 72.44175
1281.50 72.44175
1281.60 72.44175
1281.70 72.44175
1281.80 72.44175
1281.90 72.44175
1282.00 72.44175
1282.10 72.44175
1282.20 72.44175
1282.30 72.44175
1282.40 72.44175
1282.50 72.44175
1282.60 72.44175
1282.70 72.44175
1282.80 72.44175
1282.90 72.44175
1283.00 72.44175
1283.10 72.44175
1283.20 72.44175
1283.30 72.44175
1283.40 72.44175
1283.50 72.44175
1283.60 72.44175
1283.70 72.44175
1283.80 72.44175
1283.90 72.44175
1284.00 72.44175
1284.10 72.44175
1284.20 72.44175
1284.30 72.44175
1284.40 72.44175
1284.50 72.44175
1284.60 72.44175
1284.70 72.44175
1284.80 72.44175
1284.90 72.44175
1285.00 72.44175
1285.10 72.44175
1285.20 72.44175
1285.30 72.44175
1285.40 72.44175
1285.50 72.44175
1285.60 72.44175
1285.70 72.44175
1285.80 72.44175
1285.90 72.44175
1286.00 72.44175
1286.10 72.44175
1286.20 72.44175
1286.30 72.44175
1286.40 72.44175
1286.50 72.44175
1286.60 72.44175
1286.70 72.44175
1286.80 72.44175
1286.90 72.44175
1287.00 72.44175
1287.10 72.44175
1287.20 72.44175
1287.30 72.44175
1287.40 72.44175
1287.50 72.44175
1287.60 72.44175
1287.70 72.44175
1287.80 72.44175
1287.90 72.44175
1288.00 72.44175
1288.10 72.44175
1288.20 72.44175
1288.30 72.44175
1288.40 72.44175
1288.50 72.44175
1288.60 72.44175
1288.70 72.44175
1288.80 72.44175
1288.90 72.44175
1289.00 72.44175
1289.10 72.44175
1289.20 72.44175
1289.30 72.44175
1289.40 72.44175
1289.50 72.44175
1289.60 72.44175
1289.70 72.44175
1289.80 72.44175
1289.90 72.44175
1290.00 72.44175
1290.10 72.44175
1290.20 72.44175
1290.30 72.44175
1290.40 72.44175
1290.50 72.44175
1290.60 72.44175
1290.70 72.44175
1290.80 72.44175
1290.90 72.44175
1291.00 72.44175
1291.10 72.44175
1291.20 72.44175
1291.30 72.44175
1291.40 72.44175
1291.50 72.44175
1291.60 72.44175
1291.70 72.44175
1291.80 72.44175
1291.90 72.44175
1292.00 72.44175
1292.10 72.44175
1292.20 72.44175
1292.30 72.44175
1292.40 72.44175
1292.50 72.44175
1292.60 72.44175
1292.70 72.44175
1292.80 72.44175
1292.90 72.44175
1293.00 72.44175
1293.10 72.44175
1293.20 72.44175
1293.30 72.44175
1293.40 72.44175
1293.50 72.44175
1293.60 72.44175
1293.70 72.44175
1293.80 72.44175
1293.90 72.44175
1294.00 72.44175
1294.10 72.44175
1294.20 72.44175
1294.30 72.44175
1294.40 72.44175
1294.50 72.44175
1294.60 72.44175
1294.70 72.44175
1294.80 72.44175
1294.90 72.44175
1295.00 72.44175
1295.10 72.44175
1295.20 72.44175
1295.30 72.44175
1295.40 72.44175
1295.50 72.44175
1295.60 72.44175
1295.70 72.44175
1295.80 72.44175
1295.90 72.44175
1296.00 72.44175
1296.10 72.44175
1296.20 72.44175
1296.30 72.44175
1296.40 72.44175
1296.50 72.44175
1296.60 72.44175
1296.70 72.44175
1296.80 72.44175
1296.90 72.44175
1297.00 72.44175
1297.10 72.44175
1297.20 72.44175
1297.30 72.44175
1297.40 72.44175
1297.50 72.44175
1297.60 72.44175
1297.70 72.44175
1297.80 72.44175
1297.90 72.44175
1298.00 72.44175
1298.10 72.44175
1298.20 72.44175
1298.30 72.44175
1298.40 72.44175
1298.50 72.44175
1298.60 72.44175
1298.70 72.44175
1298.80 72.44175
1298.90 72.44175
1299.00 72.44175
1299.10 72.44175
1299.20 72.44175
1299.30 72.44175
1299.40 72.44175
1299.50 72.44175
1299.60 72.44175
1299.70 72.44175
1299.80 72.44175
1299.90 72.44175
