# Version 2.1 - nm, norm@500 to 1, cut digits
# Wavelength(nm)  Flambda(ergs/cm^s/s/nm)
300.00 0.01089536
300.10 0.01448255
300.20 0.01666697
300.30 0.01757001
300.40 0.01780621
300.50 0.01787522
300.60 0.0179442
300.70 0.01801388
300.80 0.01808711
300.90 0.01816937
301.00 0.01826668
301.10 0.01838172
301.20 0.01851181
301.30 0.01865093
301.40 0.01879362
301.50 0.01893702
301.60 0.01908042
301.70 0.01922382
301.80 0.01936722
301.90 0.01951062
302.00 0.01965402
302.10 0.01979742
302.20 0.01994082
302.30 0.02008422
302.40 0.02022762
302.50 0.02037102
302.60 0.02051442
302.70 0.02065836
302.80 0.020805
302.90 0.02095851
303.00 0.02112344
303.10 0.02130183
303.20 0.02149165
303.30 0.02168833
303.40 0.02188772
303.50 0.02208764
303.60 0.02228757
303.70 0.02248749
303.80 0.02268742
303.90 0.02288734
304.00 0.02308727
304.10 0.02328719
304.20 0.02348712
304.30 0.02368705
304.40 0.02388697
304.50 0.0240869
304.60 0.02428682
304.70 0.02448509
304.80 0.02467509
304.90 0.02484411
305.00 0.02497817
305.10 0.02507108
305.20 0.02512902
305.30 0.02516598
305.40 0.02519468
305.50 0.02522172
305.60 0.02524876
305.70 0.0252758
305.80 0.02530284
305.90 0.02532988
306.00 0.02535692
306.10 0.02538396
306.20 0.025411
306.30 0.02543804
306.40 0.02546508
306.50 0.02549212
306.60 0.02551916
306.70 0.0255462
306.80 0.02557326
306.90 0.02560037
307.00 0.02562755
307.10 0.02565482
307.20 0.02568217
307.30 0.02570956
307.40 0.02573697
307.50 0.02576439
307.60 0.0257918
307.70 0.02581922
307.80 0.02584663
307.90 0.02587405
308.00 0.02590146
308.10 0.02592888
308.20 0.02595629
308.30 0.02598371
308.40 0.02601112
308.50 0.02603854
308.60 0.02606596
308.70 0.02609752
308.80 0.02614977
308.90 0.02625453
309.00 0.02644678
309.10 0.02674205
309.20 0.02712481
309.30 0.02756008
309.40 0.02801604
309.50 0.02847614
309.60 0.02893624
309.70 0.02939635
309.80 0.02985645
309.90 0.03031655
310.00 0.03077666
310.10 0.03123676
310.20 0.03169687
310.30 0.03215697
310.40 0.03261708
310.50 0.03307718
310.60 0.03353728
310.70 0.03399322
310.80 0.03442836
310.90 0.03481071
311.00 0.03510511
311.10 0.03529595
311.20 0.03539884
311.30 0.03544894
311.40 0.03547824
311.50 0.03550338
311.60 0.03552852
311.70 0.03555365
311.80 0.03557879
311.90 0.03560393
312.00 0.03562906
312.10 0.0356542
312.20 0.03567933
312.30 0.03570447
312.40 0.0357296
312.50 0.03575474
312.60 0.03577988
312.70 0.03581016
312.80 0.03586613
312.90 0.0359873
313.00 0.03621709
313.10 0.03657478
313.20 0.03704109
313.30 0.03757261
313.40 0.03812981
313.50 0.03869215
313.60 0.03925449
313.70 0.03981684
313.80 0.04037919
313.90 0.04094153
314.00 0.04150388
314.10 0.04206622
314.20 0.04262857
314.30 0.04319092
314.40 0.04375326
314.50 0.04431561
314.60 0.04487796
314.70 0.04544389
314.80 0.0460277
314.90 0.04665689
315.00 0.0473617
315.10 0.04815554
315.20 0.04902498
315.30 0.04993982
315.40 0.05087253
315.50 0.05180882
315.60 0.05274512
315.70 0.05368142
315.80 0.05461771
315.90 0.05555401
316.00 0.0564903
316.10 0.0574266
316.20 0.0583629
316.30 0.05929919
316.40 0.06023549
316.50 0.06117178
316.60 0.06210807
316.70 0.06303119
316.80 0.0638886
316.90 0.06457917
317.00 0.06499181
317.10 0.06507718
317.20 0.06488463
317.30 0.06452524
317.40 0.06410014
317.50 0.06366187
317.60 0.06322359
317.70 0.06278531
317.80 0.06234704
317.90 0.06190876
318.00 0.06147048
318.10 0.0610322
318.20 0.06059392
318.30 0.06015564
318.40 0.05971736
318.50 0.05927909
318.60 0.05884082
318.70 0.05841262
318.80 0.05803473
318.90 0.05778455
319.00 0.05774713
319.10 0.05796022
319.20 0.05838606
319.30 0.05893962
319.40 0.05954347
319.50 0.06015741
319.60 0.06077135
319.70 0.06138529
319.80 0.06199924
319.90 0.06261318
320.00 0.06322713
320.10 0.06384107
320.20 0.06445501
320.30 0.06506896
320.40 0.0656829
320.50 0.06629684
320.60 0.06691078
320.70 0.067521
320.80 0.06811261
320.90 0.06865698
321.00 0.06912267
321.10 0.0694957
321.20 0.06979005
321.30 0.07003716
321.40 0.07026567
321.50 0.07049045
321.60 0.07071523
321.70 0.07094001
321.80 0.07116479
321.90 0.07138957
322.00 0.07161435
322.10 0.07183913
322.20 0.07206391
322.30 0.07228869
322.40 0.07251347
322.50 0.07273825
322.60 0.07296304
322.70 0.07320144
322.80 0.0735078
322.90 0.07398669
323.00 0.074753
323.10 0.07585773
323.20 0.07724989
323.30 0.07881457
323.40 0.08044721
323.50 0.08209347
323.60 0.08373973
323.70 0.08538599
323.80 0.08703225
323.90 0.08867852
324.00 0.09032478
324.10 0.09197105
324.20 0.09361731
324.30 0.09526358
324.40 0.09690984
324.50 0.09855611
324.60 0.1002024
324.70 0.1018464
324.80 0.1034794
324.90 0.1050844
325.00 0.1066427
325.10 0.108146
325.20 0.1096027
325.30 0.1110313
325.40 0.1124489
325.50 0.1138642
325.60 0.1152796
325.70 0.1166949
325.80 0.1181103
325.90 0.1195257
326.00 0.120941
326.10 0.1223564
326.20 0.1237717
326.30 0.1251871
326.40 0.1266024
326.50 0.1280178
326.60 0.1294332
326.70 0.1308533
326.80 0.1322972
326.90 0.1338015
327.00 0.1354065
327.10 0.1371299
327.20 0.138954
327.30 0.1408385
327.40 0.1427467
327.50 0.1446598
327.60 0.1465728
327.70 0.1484858
327.80 0.1503989
327.90 0.1523119
328.00 0.1542249
328.10 0.156138
328.20 0.158051
328.30 0.1599641
328.40 0.1618771
328.50 0.1637901
328.60 0.1657031
328.70 0.1675882
328.80 0.1693336
328.90 0.1707247
329.00 0.1715253
329.10 0.1716307
329.20 0.1711457
329.30 0.1703062
329.40 0.1693272
329.50 0.1683202
329.60 0.1673131
329.70 0.1663061
329.80 0.1652991
329.90 0.1642921
330.00 0.163285
330.10 0.162278
330.20 0.161271
330.30 0.1602639
330.40 0.1592569
330.50 0.1582499
330.60 0.1572429
330.70 0.1562566
330.80 0.1553739
330.90 0.1547541
331.00 0.1545723
331.10 0.1549062
331.20 0.155678
331.30 0.1567128
331.40 0.1578512
331.50 0.1590102
331.60 0.1601693
331.70 0.1613284
331.80 0.1624875
331.90 0.1636466
332.00 0.1648057
332.10 0.1659648
332.20 0.1671239
332.30 0.168283
332.40 0.1694421
332.50 0.1706012
332.60 0.1717603
332.70 0.1729062
332.80 0.1739866
332.90 0.1749006
333.00 0.1755372
333.10 0.1758473
333.20 0.1758801
333.30 0.1757464
333.40 0.1755472
333.50 0.1753348
333.60 0.1751225
333.70 0.1749101
333.80 0.1746977
333.90 0.1744853
334.00 0.174273
334.10 0.1740606
334.20 0.1738482
334.30 0.1736359
334.40 0.1734235
334.50 0.1732112
334.60 0.1731756
334.70 0.1737167
334.80 0.1749886
334.90 0.1762806
335.00 0.17624
335.10 0.1744979
335.20 0.1731836
335.30 0.1762777
335.40 0.1865466
335.50 0.2024189
335.60 0.2178176
335.70 0.2256942
335.80 0.2225755
335.90 0.2102834
336.00 0.1939915
336.10 0.1790261
336.20 0.1691025
336.30 0.1657776
336.40 0.1677902
336.50 0.1712168
336.60 0.1718226
336.70 0.1685752
336.80 0.1649588
336.90 0.1662412
337.00 0.1749614
337.10 0.188453
337.20 0.2003709
337.30 0.2050511
337.40 0.201487
337.50 0.1939578
337.60 0.1887559
337.70 0.1895194
337.80 0.1950956
337.90 0.2016538
338.00 0.2062652
338.10 0.2081239
338.20 0.2068051
338.30 0.2009172
338.40 0.1899863
338.50 0.1772428
338.60 0.1691203
338.70 0.1706328
338.80 0.1806954
338.90 0.192471
339.00 0.1988641
339.10 0.1983309
339.20 0.1958308
339.30 0.1979491
339.40 0.2068324
339.50 0.2187984
339.60 0.2283175
339.70 0.2326586
339.80 0.2325879
339.90 0.2296295
340.00 0.2243907
340.10 0.2174982
340.20 0.2104016
340.30 0.2042013
340.40 0.1981563
340.50 0.1904605
340.60 0.1806791
340.70 0.1707542
340.80 0.1634671
340.90 0.1603995
341.00 0.1614457
341.10 0.1656399
341.20 0.171869
341.30 0.1788256
341.40 0.184969
341.50 0.1891214
341.60 0.1911665
341.70 0.1921012
341.80 0.1932774
341.90 0.1954034
342.00 0.1979158
342.10 0.1990898
342.20 0.1970887
342.30 0.1915083
342.40 0.1842085
342.50 0.1783716
342.60 0.1763638
342.70 0.1782602
342.80 0.1821528
342.90 0.1856567
343.00 0.1873777
343.10 0.1875381
343.20 0.1874575
343.30 0.1882702
343.40 0.189936
343.50 0.1914748
343.60 0.1920035
343.70 0.1912798
343.80 0.1894916
343.90 0.1870815
344.00 0.1848584
344.10 0.1837578
344.20 0.1840241
344.30 0.1847978
344.40 0.1848705
344.50 0.183841
344.60 0.1824414
344.70 0.181895
344.80 0.183137
344.90 0.1864977
345.00 0.191802
345.10 0.1985018
345.20 0.2057045
345.30 0.2121741
345.40 0.2165297
345.50 0.2179103
345.60 0.216694
345.70 0.214435
345.80 0.2128006
345.90 0.2124059
346.00 0.2125381
346.10 0.2117805
346.20 0.2090013
346.30 0.2042441
346.40 0.1990146
346.50 0.1954044
346.60 0.1944282
346.70 0.1951419
346.80 0.1955206
346.90 0.1941066
347.00 0.1907613
347.10 0.1863858
347.20 0.1824749
347.30 0.1806957
347.40 0.1821081
347.50 0.1863297
347.60 0.1917137
347.70 0.196615
347.80 0.2004903
347.90 0.2038817
348.00 0.2075613
348.10 0.2116674
348.20 0.2154263
348.30 0.2176638
348.40 0.2177567
348.50 0.2161788
348.60 0.2140125
348.70 0.2119615
348.80 0.2100202
348.90 0.2079619
349.00 0.205798
349.10 0.2037207
349.20 0.2019024
349.30 0.2005904
349.40 0.2002287
349.50 0.2011004
349.60 0.2027736
349.70 0.2041667
349.80 0.2045055
349.90 0.2044118
350.00 0.2058285
350.10 0.2104894
350.20 0.218257
350.30 0.2269481
350.40 0.2338236
350.50 0.2373199
350.60 0.2375637
350.70 0.2356398
350.80 0.2326688
350.90 0.2292776
351.00 0.2253553
351.10 0.2201053
351.20 0.2126683
351.30 0.2032271
351.40 0.1936119
351.50 0.1864198
351.60 0.1831753
351.70 0.1832549
351.80 0.1846117
351.90 0.1854814
352.00 0.1853679
352.10 0.1846289
352.20 0.1836805
352.30 0.1828834
352.40 0.1830122
352.50 0.1854862
352.60 0.1915901
352.70 0.2011451
352.80 0.2120015
352.90 0.2212383
353.00 0.2273142
353.10 0.2310518
353.20 0.2343766
353.30 0.2383558
353.40 0.2427291
353.50 0.2469734
353.60 0.2511951
353.70 0.2557975
353.80 0.260774
353.90 0.2656819
354.00 0.2699426
354.10 0.2728042
354.20 0.2733596
354.30 0.2712467
354.40 0.2674316
354.50 0.2638813
354.60 0.2620934
354.70 0.2619922
354.80 0.2623433
354.90 0.262049
355.00 0.2609042
355.10 0.2593499
355.20 0.2578557
355.30 0.2566386
355.40 0.2558039
355.50 0.255397
355.60 0.255161
355.70 0.2543762
355.80 0.2521956
355.90 0.2483488
356.00 0.243464
356.10 0.2385567
356.20 0.2341598
356.30 0.2298977
356.40 0.2248983
356.50 0.2187409
356.60 0.2121462
356.70 0.2067191
356.80 0.2038296
356.90 0.2036009
357.00 0.2049194
357.10 0.2062962
357.20 0.2066453
357.30 0.2055038
357.40 0.2028964
357.50 0.1991889
357.60 0.1949818
357.70 0.1909001
357.80 0.1873388
357.90 0.1843748
358.00 0.1819854
358.10 0.1804321
358.20 0.1803614
358.30 0.1823813
358.40 0.1864509
358.50 0.1916607
358.60 0.1965847
358.70 0.1998909
358.80 0.2008961
358.90 0.1998961
359.00 0.1981869
359.10 0.1975784
359.20 0.1993981
359.30 0.2035654
359.40 0.2084851
359.50 0.2120461
359.60 0.2130527
359.70 0.2119666
359.80 0.2103838
359.90 0.2096858
360.00 0.2099421
360.10 0.209913
360.20 0.2081079
360.30 0.2039824
360.40 0.1983962
360.50 0.1931836
360.60 0.1903028
360.70 0.1910573
360.80 0.1955075
360.90 0.2023343
361.00 0.2094869
361.10 0.2153501
361.20 0.2195093
361.30 0.2224334
361.40 0.2245285
361.50 0.2257066
361.60 0.225946
361.70 0.2258987
361.80 0.226536
361.90 0.2281626
362.00 0.2300524
362.10 0.2312095
362.20 0.2312836
362.30 0.2306702
362.40 0.2300317
362.50 0.2299215
362.60 0.2305237
362.70 0.2313357
362.80 0.2312576
362.90 0.2294672
363.00 0.2263778
363.10 0.2235162
363.20 0.2222918
363.30 0.2229468
363.40 0.2246578
363.50 0.2263986
363.60 0.2276002
363.70 0.2282063
363.80 0.2283325
363.90 0.2279313
364.00 0.2267091
364.10 0.2243306
364.20 0.2207578
364.30 0.2164398
364.40 0.2122174
364.50 0.2090502
364.60 0.2076449
364.70 0.2080616
364.80 0.2096278
364.90 0.2114473
365.00 0.2132187
365.10 0.2155397
365.20 0.2191704
365.30 0.2239016
365.40 0.2282797
365.50 0.2306125
365.60 0.2303653
365.70 0.2285656
365.80 0.2268131
365.90 0.2259818
366.00 0.225892
366.10 0.2260404
366.20 0.2263921
366.30 0.2273125
366.40 0.2288961
366.50 0.2305995
366.60 0.2315259
366.70 0.2310053
366.80 0.2289431
366.90 0.2257698
367.00 0.2222154
367.10 0.2191095
367.20 0.2172055
367.30 0.2169874
367.40 0.2184604
367.50 0.2211079
367.60 0.2241446
367.70 0.2269238
367.80 0.229207
367.90 0.2311198
368.00 0.232886
368.10 0.2345585
368.20 0.2359243
368.30 0.236609
368.40 0.2363194
368.50 0.2351196
368.60 0.233545
368.70 0.2323811
368.80 0.2321834
368.90 0.2329391
369.00 0.2342212
369.10 0.2356913
369.20 0.2373318
369.30 0.2391266
369.40 0.2406552
369.50 0.2411977
369.60 0.2403578
369.70 0.2385492
369.80 0.2368518
369.90 0.2363993
370.00 0.2377912
370.10 0.2408573
370.20 0.2448504
370.30 0.2488487
370.40 0.2520732
370.50 0.2540184
370.60 0.2545094
370.70 0.2538401
370.80 0.2527914
370.90 0.2522825
371.00 0.2527746
371.10 0.2538882
371.20 0.2545471
371.30 0.2535344
371.40 0.2501726
371.50 0.2447732
371.60 0.2385909
371.70 0.233237
371.80 0.2299434
371.90 0.229163
372.00 0.230608
372.10 0.2333333
372.20 0.2356707
372.30 0.2355196
372.40 0.2313185
372.50 0.2232691
372.60 0.2137051
372.70 0.2060479
372.80 0.2030631
372.90 0.2056494
373.00 0.2127713
373.10 0.2222113
373.20 0.2314897
373.30 0.238535
373.40 0.2420996
373.50 0.2418481
373.60 0.2381285
373.70 0.2316402
373.80 0.223286
373.90 0.2142542
374.00 0.2060345
374.10 0.2001597
374.20 0.197815
374.30 0.1996295
374.40 0.2057247
374.50 0.215759
374.60 0.2288008
374.70 0.2431514
374.80 0.2564515
374.90 0.2662798
375.00 0.270984
375.10 0.2702123
375.20 0.2648556
375.30 0.2565838
375.40 0.2473336
375.50 0.2389009
375.60 0.2325141
375.70 0.2285047
375.80 0.2263274
375.90 0.2250126
376.00 0.2238393
376.10 0.222864
376.20 0.2230347
376.30 0.2257979
376.40 0.2323932
376.50 0.2433199
376.60 0.2583233
376.70 0.2765592
376.80 0.2964772
376.90 0.3154956
377.00 0.3302133
377.10 0.3375746
377.20 0.3362674
377.30 0.327232
377.40 0.3129695
377.50 0.296359
377.60 0.2798347
377.70 0.2651484
377.80 0.2533077
377.90 0.2445225
378.00 0.2383308
378.10 0.2339985
378.20 0.2309494
378.30 0.2288724
378.40 0.2275516
378.50 0.2268094
378.60 0.2266736
378.70 0.2274723
378.80 0.2296917
378.90 0.2338774
379.00 0.2407975
379.10 0.2515387
379.20 0.2670548
379.30 0.2873321
379.40 0.3108734
379.50 0.3349137
379.60 0.3560581
379.70 0.370958
379.80 0.3770696
379.90 0.3734453
380.00 0.3612198
380.10 0.343279
380.20 0.3231599
380.30 0.3038393
380.40 0.2871067
380.50 0.2736097
380.60 0.2632057
380.70 0.2552643
380.80 0.2488915
380.90 0.2433177
381.00 0.2382772
381.10 0.2339968
381.20 0.230739
381.30 0.2283717
381.40 0.2264957
381.50 0.2250095
381.60 0.2243319
381.70 0.2248697
381.80 0.2262685
381.90 0.227339
382.00 0.2269232
382.10 0.2248886
382.20 0.2222745
382.30 0.219358
382.40 0.2166588
382.50 0.2200691
382.60 0.2368054
382.70 0.2604904
382.80 0.2647933
382.90 0.2247086
383.00 0.1508095
383.10 0.09286546
383.20 0.09836316
383.30 0.1697548
383.40 0.2655518
383.50 0.3382172
383.60 0.3707423
383.70 0.3785028
383.80 0.3823223
383.90 0.3891684
384.00 0.3934735
384.10 0.3864878
384.20 0.3627235
384.30 0.3204742
384.40 0.2680688
384.50 0.2252392
384.60 0.2068177
384.70 0.2090181
384.80 0.2209873
384.90 0.2396679
385.00 0.2667324
385.10 0.2969455
385.20 0.3139411
385.30 0.3038718
385.40 0.2653206
385.50 0.2110715
385.60 0.1626342
385.70 0.1321329
385.80 0.1117054
385.90 0.09026581
386.00 0.07953851
386.10 0.1052763
386.20 0.1691569
386.30 0.2311197
386.40 0.2446629
386.50 0.2061442
386.60 0.1551857
386.70 0.1315065
386.80 0.1395841
386.90 0.1599719
387.00 0.1838426
387.10 0.2202935
387.20 0.272082
387.30 0.321817
387.40 0.348664
387.50 0.3490513
387.60 0.3378999
387.70 0.3347544
387.80 0.3510013
387.90 0.3815493
388.00 0.4025285
388.10 0.3892112
388.20 0.3403643
388.30 0.2762124
388.40 0.2158081
388.50 0.1646899
388.60 0.1266522
388.70 0.1143348
388.80 0.1399057
388.90 0.1987469
389.00 0.2666293
389.10 0.3137305
389.20 0.3241037
389.30 0.3100087
389.40 0.3003948
389.50 0.3076107
389.60 0.3115235
389.70 0.2871903
389.80 0.243948
389.90 0.2224832
390.00 0.2493639
390.10 0.3064321
390.20 0.3524784
390.30 0.3619613
390.40 0.3352529
390.50 0.2833828
390.60 0.2184527
390.70 0.161811
390.80 0.1417066
390.90 0.1698009
391.00 0.2261099
391.10 0.2736141
391.20 0.2898094
391.30 0.280124
391.40 0.2642895
391.50 0.2575481
391.60 0.2634242
391.70 0.2755804
391.80 0.2841818
391.90 0.2848703
392.00 0.2828542
392.10 0.2891947
392.20 0.3098496
392.30 0.3385883
392.40 0.3606508
392.50 0.3581613
392.60 0.3179586
392.70 0.2404279
392.80 0.1469396
392.90 0.07366288
393.00 0.04994737
393.10 0.07606248
393.20 0.1208422
393.30 0.1470094
393.40 0.1412843
393.50 0.1222168
393.60 0.1216512
393.70 0.1588254
393.80 0.226424
393.90 0.2952561
394.00 0.3320299
394.10 0.3208078
394.20 0.2733115
394.30 0.2183959
394.40 0.1833955
394.50 0.1825998
394.60 0.2163081
394.70 0.2720434
394.80 0.3269976
394.90 0.3585393
395.00 0.3582541
395.10 0.3367598
395.20 0.3115754
395.30 0.2894681
395.40 0.2635818
395.50 0.227583
395.60 0.1877828
395.70 0.1569029
395.80 0.1398445
395.90 0.1340433
396.00 0.1399231
396.10 0.1592169
396.20 0.1857317
396.30 0.2063753
396.40 0.213992
396.50 0.2124035
396.60 0.2049173
396.70 0.1889845
396.80 0.1681302
396.90 0.1599459
397.00 0.1838881
397.10 0.2393207
397.20 0.3012352
397.30 0.3430623
397.40 0.3592779
397.50 0.3650655
397.60 0.3770249
397.70 0.3960429
397.80 0.4117769
397.90 0.4193876
398.00 0.4234192
398.10 0.4268124
398.20 0.4234645
398.30 0.4071646
398.40 0.3864313
398.50 0.3784233
398.60 0.3866174
398.70 0.3942993
398.80 0.3835407
398.90 0.3584313
399.00 0.3422953
399.10 0.3526668
399.20 0.3848836
399.30 0.4189853
399.40 0.4371049
399.50 0.4340603
399.60 0.4176712
399.70 0.4036392
399.80 0.4058683
399.90 0.4234765
400.00 0.4377626
400.10 0.4269849
400.20 0.3871593
400.30 0.3392915
400.40 0.3156042
400.50 0.3373873
400.60 0.4003722
400.70 0.4748198
400.80 0.521172
400.90 0.5172557
401.00 0.4760535
401.10 0.4327614
401.20 0.4126526
401.30 0.4144478
401.40 0.4242031
401.50 0.4371438
401.60 0.4566535
401.70 0.4783264
401.80 0.4891786
401.90 0.4805926
402.00 0.4543763
402.10 0.4164249
402.20 0.3713766
402.30 0.3262164
402.40 0.2933719
402.50 0.28171
402.60 0.2896378
402.70 0.3093394
402.80 0.3339846
402.90 0.3600347
403.00 0.3837439
403.10 0.3984021
403.20 0.3957254
403.30 0.3728358
403.40 0.3406839
403.50 0.3205056
403.60 0.3260057
403.70 0.3501719
403.80 0.3737959
403.90 0.3869805
404.00 0.3961067
404.10 0.4092263
404.20 0.4220326
404.30 0.4215816
404.40 0.4021538
404.50 0.3731005
404.60 0.3495376
404.70 0.342583
404.80 0.3580538
404.90 0.3966299
405.00 0.4492194
405.10 0.4968922
405.20 0.524095
405.30 0.5307439
405.40 0.5264468
405.50 0.5169846
405.60 0.5036086
405.70 0.4888358
405.80 0.4760768
405.90 0.464971
406.00 0.4529284
406.10 0.4410001
406.20 0.4330157
406.30 0.4298166
406.40 0.4276592
406.50 0.4226842
406.60 0.4150838
406.70 0.4100229
406.80 0.4150811
406.90 0.4302512
407.00 0.4422923
407.10 0.4343362
407.20 0.4039276
407.30 0.3680999
407.40 0.3462168
407.50 0.3454046
407.60 0.3644671
407.70 0.4020835
407.80 0.4508726
407.90 0.4920503
408.00 0.5091238
408.10 0.5052452
408.20 0.4982101
408.30 0.4999806
408.40 0.5104832
408.50 0.5289063
408.60 0.5578458
408.70 0.5922302
408.80 0.6141673
408.90 0.6075581
409.00 0.5760746
409.10 0.5404164
409.20 0.5178036
409.30 0.5082788
409.40 0.5018688
409.50 0.4922914
409.60 0.481456
409.70 0.4745692
409.80 0.4763133
409.90 0.4888639
410.00 0.5065976
410.10 0.5157585
410.20 0.5054867
410.30 0.4810312
410.40 0.4634368
410.50 0.4719099
410.60 0.5042103
410.70 0.5357993
410.80 0.5407756
410.90 0.5139435
411.00 0.4727263
411.10 0.4387322
411.20 0.4191814
411.30 0.4056707
411.40 0.386244
411.50 0.358004
411.60 0.3336814
411.70 0.3348284
411.80 0.3733063
411.90 0.4377444
412.00 0.5007915
412.10 0.5414541
412.20 0.5591672
412.30 0.5665287
412.40 0.5721049
412.50 0.5727386
412.60 0.559421
412.70 0.5275676
412.80 0.4822315
412.90 0.4365276
413.00 0.4060225
413.10 0.4008137
413.20 0.4201258
413.30 0.4537101
413.40 0.4879162
413.50 0.511118
413.60 0.5164307
413.70 0.5071627
413.80 0.499359
413.90 0.5090713
414.00 0.5327059
414.10 0.5440794
414.20 0.5199313
414.30 0.4672786
414.40 0.419608
414.50 0.4076588
414.60 0.4350582
414.70 0.4789532
414.80 0.5102617
414.90 0.5153388
415.00 0.5021591
415.10 0.4878035
415.20 0.4793616
415.30 0.4706751
415.40 0.4574689
415.50 0.4472769
415.60 0.4505966
415.70 0.4668773
415.80 0.4846801
415.90 0.4949327
416.00 0.4975985
416.10 0.4986448
416.20 0.5039606
416.30 0.5134152
416.40 0.5181657
416.50 0.5049159
416.60 0.4689386
416.70 0.4227652
416.80 0.3879926
416.90 0.3768706
417.00 0.3850093
417.10 0.40168
417.20 0.4220789
417.30 0.447469
417.40 0.4760711
417.50 0.4998721
417.60 0.5092969
417.70 0.4997249
417.80 0.4745344
417.90 0.4447203
418.00 0.4256964
418.10 0.4279331
418.20 0.4501827
418.30 0.4799237
418.40 0.4992194
418.50 0.4926338
418.60 0.4556373
418.70 0.402165
418.80 0.3618599
418.90 0.3619451
419.00 0.4046464
419.10 0.4640149
419.20 0.5072349
419.30 0.5190966
419.40 0.5064946
419.50 0.4828577
419.60 0.456258
419.70 0.433146
419.80 0.4231832
419.90 0.4312817
420.00 0.4491912
420.10 0.4637788
420.20 0.4724434
420.30 0.4816727
420.40 0.4899337
420.50 0.4846693
420.60 0.4598653
420.70 0.4247158
420.80 0.3884768
420.90 0.3487486
421.00 0.304606
421.10 0.2720759
421.20 0.2730792
421.30 0.3106219
421.40 0.3650667
421.50 0.4116172
421.60 0.4340162
421.70 0.4267916
421.80 0.3967934
421.90 0.3616821
422.00 0.3352503
422.10 0.3136324
422.20 0.2832203
422.30 0.2425356
422.40 0.2059935
422.50 0.1851325
422.60 0.1770252
422.70 0.1736194
422.80 0.1738913
422.90 0.1831017
423.00 0.2060588
423.10 0.2424712
423.20 0.285282
423.30 0.3206272
423.40 0.3354654
423.50 0.3291197
423.60 0.3144918
423.70 0.3090321
423.80 0.3224024
423.90 0.3481217
424.00 0.368277
424.10 0.3710881
424.20 0.3642527
424.30 0.3680243
424.40 0.3912631
424.50 0.4202386
424.60 0.4365227
424.70 0.4354355
424.80 0.422878
424.90 0.4015585
425.00 0.370447
425.10 0.3358166
425.20 0.3123342
425.30 0.3099077
425.40 0.3256471
425.50 0.3501491
425.60 0.3741285
425.70 0.3910453
425.80 0.3993717
425.90 0.4036608
426.00 0.4078447
426.10 0.408501
426.20 0.4009118
426.30 0.3910159
426.40 0.3943202
426.50 0.4174742
426.60 0.4467864
426.70 0.4607278
426.80 0.4516004
426.90 0.4309859
427.00 0.4153095
427.10 0.4099706
427.20 0.4078868
427.30 0.4001099
427.40 0.3845105
427.50 0.3685936
427.60 0.3633404
427.70 0.3707945
427.80 0.3792494
427.90 0.3748773
428.00 0.3589631
428.10 0.3498672
428.20 0.3658466
428.30 0.40775
428.40 0.4575199
428.50 0.4891872
428.60 0.4860855
428.70 0.4511755
428.80 0.402106
428.90 0.3598941
429.00 0.3397952
429.10 0.3480224
429.20 0.3792574
429.30 0.4167067
429.40 0.4436304
429.50 0.4547901
429.60 0.4526444
429.70 0.4375543
429.80 0.4090797
429.90 0.3740481
430.00 0.3468721
430.10 0.3397095
430.20 0.3553528
430.30 0.3881205
430.40 0.4244105
430.50 0.4459248
430.60 0.4395746
430.70 0.4080268
430.80 0.3704882
430.90 0.3499475
431.00 0.3588063
431.10 0.3937292
431.20 0.4404988
431.30 0.48442
431.40 0.5172846
431.50 0.5359278
431.60 0.5369873
431.70 0.5177155
431.80 0.4846055
431.90 0.4577013
432.00 0.4564
432.10 0.4798366
432.20 0.5077502
432.30 0.5201486
432.40 0.5147277
432.50 0.5038397
432.60 0.5008607
432.70 0.5113182
432.80 0.5306611
432.90 0.5474313
433.00 0.5539321
433.10 0.5554759
433.20 0.5646157
433.30 0.5862539
433.40 0.6095939
433.50 0.6156721
433.60 0.5902867
433.70 0.533118
433.80 0.4625354
433.90 0.4125122
434.00 0.413375
434.10 0.465901
434.20 0.5366404
434.30 0.5845054
434.40 0.5936863
434.50 0.5788489
434.60 0.5626242
434.70 0.5554353
434.80 0.5557659
434.90 0.5602603
435.00 0.5660144
435.10 0.5664094
435.20 0.5534378
435.30 0.5274897
435.40 0.5019019
435.50 0.4917004
435.60 0.4971693
435.70 0.5045153
435.80 0.5039
435.90 0.5010359
436.00 0.5076023
436.10 0.5267326
436.20 0.552095
436.30 0.5766713
436.40 0.594898
436.50 0.6010661
436.60 0.59293
436.70 0.5753576
436.80 0.5576791
436.90 0.5467781
437.00 0.5446896
437.10 0.5503083
437.20 0.560714
437.30 0.5722863
437.40 0.580455
437.50 0.5796545
437.60 0.5676312
437.70 0.5528905
437.80 0.5531022
437.90 0.5773542
438.00 0.609259
438.10 0.6157616
438.20 0.5773932
438.30 0.5084672
438.40 0.4465974
438.50 0.4217121
438.60 0.435337
438.70 0.466633
438.80 0.4944459
438.90 0.5131706
439.00 0.5296672
439.10 0.5490069
439.20 0.5669756
439.30 0.5753272
439.40 0.5705488
439.50 0.5588131
439.60 0.5542315
439.70 0.5706209
439.80 0.6086212
439.90 0.6487983
440.00 0.6644777
440.10 0.6461344
440.20 0.6103871
440.30 0.5806211
440.40 0.5632437
440.50 0.5494728
440.60 0.5355303
440.70 0.5314599
440.80 0.5481373
440.90 0.5828281
441.00 0.6214899
441.10 0.6495304
441.20 0.658243
441.30 0.6472638
441.40 0.6260606
441.50 0.6102957
441.60 0.6112903
441.70 0.6271118
441.80 0.6459936
441.90 0.6577595
442.00 0.6604632
442.10 0.6583129
442.20 0.6561067
442.30 0.6563345
442.40 0.6583858
442.50 0.6586114
442.60 0.6528006
442.70 0.641666
442.80 0.6337656
442.90 0.6382341
443.00 0.6531381
443.10 0.6635425
443.20 0.653296
443.30 0.6196509
443.40 0.5770838
443.50 0.5478797
443.60 0.5491888
443.70 0.5852665
443.80 0.6446489
443.90 0.7039716
444.00 0.7381049
444.10 0.7354477
444.20 0.7091154
444.30 0.6882148
444.40 0.6914648
444.50 0.7108758
444.60 0.7244766
444.70 0.7228403
444.80 0.7181489
444.90 0.7270101
445.00 0.751102
445.10 0.7739624
445.20 0.7719808
445.30 0.7310875
445.40 0.66083
445.50 0.5933135
445.60 0.5616744
445.70 0.5757963
445.80 0.6190257
445.90 0.667196
446.00 0.7059857
446.10 0.7320426
446.20 0.7452684
446.30 0.7440273
446.40 0.7280166
446.50 0.7037896
446.60 0.6853242
446.70 0.6851337
446.80 0.7027145
446.90 0.7227932
447.00 0.7292657
447.10 0.7213099
447.20 0.7144697
447.30 0.7272129
447.40 0.7659936
447.50 0.8205125
447.60 0.8707069
447.70 0.8998829
447.80 0.903505
447.90 0.8885266
448.00 0.865098
448.10 0.8410143
448.20 0.8222916
448.30 0.8141762
448.40 0.8194528
448.50 0.8373737
448.60 0.864557
448.70 0.8931484
448.80 0.9103619
448.90 0.906489
449.00 0.8864405
449.10 0.8679937
449.20 0.8646685
449.30 0.8729208
449.40 0.8785771
449.50 0.8720347
449.60 0.8549225
449.70 0.8362306
449.80 0.8254306
449.90 0.8269821
450.00 0.8368301
450.10 0.8462036
450.20 0.8517239
450.30 0.8605475
450.40 0.8812232
450.50 0.9099352
450.60 0.9305886
450.70 0.9304252
450.80 0.9132015
450.90 0.8936867
451.00 0.8816482
451.10 0.8750298
451.20 0.8695636
451.30 0.8692369
451.40 0.8808847
451.50 0.901253
451.60 0.9175321
451.70 0.9222781
451.80 0.9210353
451.90 0.9225489
452.00 0.9259232
452.10 0.9232374
452.20 0.9123119
452.30 0.8995561
452.40 0.8914017
452.50 0.8868819
452.60 0.8795267
452.70 0.8649156
452.80 0.8440457
452.90 0.821692
453.00 0.8041385
453.10 0.7941538
453.20 0.7857211
453.30 0.767959
453.40 0.7378463
453.50 0.7102004
453.60 0.7099552
453.70 0.7491302
453.80 0.813476
453.90 0.872977
454.00 0.9059709
454.10 0.9139326
454.20 0.9119196
454.30 0.9087198
454.40 0.9012612
454.50 0.884986
454.60 0.8645445
454.70 0.8520707
454.80 0.8563136
454.90 0.8761071
455.00 0.9004456
455.10 0.9139779
455.20 0.9062712
455.30 0.8788312
455.40 0.8452066
455.50 0.8254349
455.60 0.8364009
455.70 0.8800962
455.80 0.9394151
455.90 0.9890551
456.00 1.014777
456.10 1.021366
456.20 1.022928
456.30 1.030244
456.40 1.047635
456.50 1.074653
456.60 1.105325
456.70 1.129218
456.80 1.137181
456.90 1.125703
457.00 1.097514
457.10 1.062172
457.20 1.03649
457.30 1.037117
457.40 1.064164
457.50 1.094526
457.60 1.099534
457.70 1.070207
457.80 1.022756
457.90 0.9814495
458.00 0.9603929
458.10 0.9600093
458.20 0.9720917
458.30 0.9837195
458.40 0.9832091
458.50 0.9697332
458.60 0.9559343
458.70 0.9562783
458.80 0.9720816
458.90 0.9908646
459.00 1.001086
459.10 1.003506
459.20 1.006026
459.30 1.012669
459.40 1.020981
459.50 1.027567
459.60 1.031199
459.70 1.030835
459.80 1.024654
459.90 1.012281
460.00 0.9966484
460.10 0.9843304
460.20 0.9830819
460.30 0.9947815
460.40 1.009411
460.50 1.009526
460.60 0.9868028
460.70 0.9545221
460.80 0.9396897
460.90 0.9605936
461.00 1.011667
461.10 1.069195
461.20 1.110191
461.30 1.125214
461.40 1.118043
461.50 1.099794
461.60 1.084546
461.70 1.084942
461.80 1.104365
461.90 1.131712
462.00 1.147455
462.10 1.138748
462.20 1.110038
462.30 1.078321
462.40 1.058071
462.50 1.0503
462.60 1.044015
462.70 1.028253
462.80 1.00306
462.90 0.9793389
463.00 0.9689173
463.10 0.9747299
463.20 0.989503
463.30 1.001098
463.40 0.9990156
463.50 0.9813097
463.60 0.9586178
463.70 0.9476207
463.80 0.9566395
463.90 0.9781282
464.00 0.9971407
464.10 1.005104
464.20 1.00328
464.30 0.9970535
464.40 0.9910352
464.50 0.9887141
464.60 0.9926704
464.70 1.00258
464.80 1.014102
464.90 1.021418
465.00 1.022498
465.10 1.021897
465.20 1.026749
465.30 1.0395
465.40 1.054043
465.50 1.060617
465.60 1.056647
465.70 1.052726
465.80 1.065292
465.90 1.099364
466.00 1.139404
466.10 1.161233
466.20 1.153755
466.30 1.12648
466.40 1.097277
466.50 1.075847
466.60 1.059933
466.70 1.044044
466.80 1.027248
466.90 1.012224
467.00 0.9988813
467.10 0.9823652
467.20 0.9595522
467.30 0.9363998
467.40 0.9250362
467.50 0.9325916
467.60 0.9553443
467.70 0.9838349
467.80 1.010377
467.90 1.029684
468.00 1.035437
468.10 1.023913
468.20 1.002209
468.30 0.9866197
468.40 0.988509
468.50 1.003639
468.60 1.018593
468.70 1.026494
468.80 1.032397
468.90 1.043256
469.00 1.058156
469.10 1.071649
469.20 1.084379
469.30 1.103429
469.40 1.130051
469.50 1.151473
469.60 1.15093
469.70 1.126242
469.80 1.092891
469.90 1.068601
470.00 1.059786
470.10 1.063291
470.20 1.075296
470.30 1.094173
470.40 1.115615
470.50 1.129626
470.60 1.125733
470.70 1.102286
470.80 1.071425
470.90 1.052017
471.00 1.053111
471.10 1.065345
471.20 1.071561
471.30 1.063939
471.40 1.048004
471.50 1.031657
471.60 1.01696
471.70 1.005957
471.80 1.006609
471.90 1.025758
472.00 1.0586
472.10 1.090534
472.20 1.110367
472.30 1.118785
472.40 1.122351
472.50 1.122684
472.60 1.115073
472.70 1.096859
472.80 1.074633
472.90 1.059599
473.00 1.05598
473.10 1.05775
473.20 1.058017
473.30 1.057525
473.40 1.060684
473.50 1.065868
473.60 1.065215
473.70 1.054998
473.80 1.04176
473.90 1.035738
474.00 1.040588
474.10 1.050871
474.20 1.058597
474.30 1.060863
474.40 1.061794
474.50 1.068455
474.60 1.084232
474.70 1.106855
474.80 1.133018
474.90 1.161973
475.00 1.191075
475.10 1.210311
475.20 1.207822
475.30 1.182872
475.40 1.147999
475.50 1.116569
475.60 1.091852
475.70 1.069545
475.80 1.04618
475.90 1.019579
476.00 0.9855137
476.10 0.9421503
476.20 0.8980781
476.30 0.8689822
476.40 0.8624486
476.50 0.8691036
476.60 0.8726072
476.70 0.8659024
476.80 0.8544619
476.90 0.8470308
477.00 0.8459769
477.10 0.8460418
477.20 0.8415332
477.30 0.8349708
477.40 0.8370302
477.50 0.8535148
477.60 0.8732639
477.70 0.8760727
477.80 0.8544002
477.90 0.8218406
478.00 0.7985737
478.10 0.7924846
478.20 0.7967949
478.30 0.8016043
478.40 0.8037566
478.50 0.8069278
478.60 0.8163368
478.70 0.8341825
478.80 0.8577858
478.90 0.8823629
479.00 0.9052091
479.10 0.9268075
479.20 0.9473801
479.30 0.9638342
479.40 0.9719847
479.50 0.971962
479.60 0.9699137
479.70 0.9732447
479.80 0.9860503
479.90 1.006771
480.00 1.029261
480.10 1.046465
480.20 1.053655
480.30 1.049898
480.40 1.036461
480.50 1.014396
480.60 0.983769
480.70 0.9458573
480.80 0.9066945
480.90 0.8768722
481.00 0.8647448
481.10 0.870005
481.20 0.8856813
481.30 0.9056941
481.40 0.9267877
481.50 0.9436282
481.60 0.9484683
481.70 0.939049
481.80 0.9243679
481.90 0.9194856
482.00 0.9321431
482.10 0.9546004
482.20 0.9705152
482.30 0.9686381
482.40 0.9503131
482.50 0.9258677
482.60 0.9070332
482.70 0.9034571
482.80 0.9202031
482.90 0.9525821
483.00 0.9853348
483.10 1.00208
483.20 0.9976099
483.30 0.9811208
483.40 0.9670904
483.50 0.9647522
483.60 0.9764489
483.70 1.000538
483.80 1.031707
483.90 1.059769
484.00 1.073625
484.10 1.069241
484.20 1.052725
484.30 1.034943
484.40 1.024263
484.50 1.023637
484.60 1.03138
484.70 1.043353
484.80 1.053937
484.90 1.056905
485.00 1.047448
485.10 1.025568
485.20 0.9983464
485.30 0.9759598
485.40 0.9639608
485.50 0.9601165
485.60 0.9588079
485.70 0.9575727
485.80 0.958854
485.90 0.9654498
486.00 0.9761548
486.10 0.986415
486.20 0.9929738
486.30 0.9976867
486.40 1.004684
486.50 1.013759
486.60 1.018029
486.70 1.010453
486.80 0.9917574
486.90 0.9697683
487.00 0.9521731
487.10 0.9429586
487.20 0.9453681
487.30 0.9626797
487.40 0.9928288
487.50 1.024942
487.60 1.046543
487.70 1.053458
487.80 1.050154
487.90 1.042055
488.00 1.030008
488.10 1.013044
488.20 0.9934605
488.30 0.9778924
488.40 0.974677
488.50 0.9895456
488.60 1.021079
488.70 1.060075
488.80 1.094543
488.90 1.115312
489.00 1.11866
489.10 1.106117
489.20 1.084718
489.30 1.066675
489.40 1.064184
489.50 1.080323
489.60 1.105171
489.70 1.123493
489.80 1.127461
489.90 1.121471
490.00 1.113506
490.10 1.105878
490.20 1.097427
490.30 1.090608
490.40 1.091941
490.50 1.106462
490.60 1.133975
490.70 1.168817
490.80 1.200598
490.90 1.218126
491.00 1.217369
491.10 1.205152
491.20 1.19247
491.30 1.184559
491.40 1.179638
491.50 1.175711
491.60 1.174811
491.70 1.179276
491.80 1.185425
491.90 1.184693
492.00 1.174263
492.10 1.164562
492.20 1.170774
492.30 1.195676
492.40 1.224785
492.50 1.242228
492.60 1.249239
492.70 1.261051
492.80 1.287132
492.90 1.320703
493.00 1.346886
493.10 1.356352
493.20 1.348988
493.30 1.329806
493.40 1.307046
493.50 1.290297
493.60 1.283331
493.70 1.279908
493.80 1.271318
493.90 1.257932
494.00 1.250566
494.10 1.258528
494.20 1.280359
494.30 1.307764
494.40 1.333404
494.50 1.352709
494.60 1.362618
494.70 1.362833
494.80 1.359452
494.90 1.364001
495.00 1.384291
495.10 1.414351
495.20 1.431901
495.30 1.408554
495.40 1.329039
495.50 1.204725
495.60 1.068059
495.70 0.95355
495.80 0.8811045
495.90 0.8516936
496.00 0.8538213
496.10 0.8731538
496.20 0.8989534
496.30 0.9236515
496.40 0.939188
496.50 0.9391004
496.60 0.9272845
496.70 0.9200449
496.80 0.9335749
496.90 0.9688015
497.00 1.011257
497.10 1.04502
497.20 1.064902
497.30 1.076178
497.40 1.085684
497.50 1.095463
497.60 1.103241
497.70 1.105175
497.80 1.096424
497.90 1.072249
498.00 1.034085
498.10 0.9958848
498.20 0.977475
498.30 0.9873576
498.40 1.014909
498.50 1.041653
498.60 1.057946
498.70 1.065547
498.80 1.068398
498.90 1.067434
499.00 1.063512
499.10 1.059834
499.20 1.06008
499.30 1.065527
499.40 1.07498
499.50 1.086882
499.60 1.089225
499.70 1.048606
499.80 0.9233403
499.90 0.7026805
500.00 1
500.10 0.9606521
500.20 0.9847472
500.30 0.9941098
500.40 0.9256381
500.50 0.9197356
500.60 1.005018
500.70 1.000314
500.80 0.8646973
500.90 0.8383194
501.00 0.9660423
501.10 1.084038
501.20 1.1095
501.30 1.002069
501.40 0.9641445
501.50 1.067902
501.60 1.056107
501.70 0.957645
501.80 0.916152
501.90 1.005006
502.00 1.126354
502.10 1.057293
502.20 0.9154488
502.30 0.9111564
502.40 0.9517104
502.50 0.9756525
502.60 1.025442
502.70 0.9957804
502.80 1.008834
502.90 0.9869819
503.00 0.9862646
503.10 1.028502
503.20 1.049678
503.30 1.03183
503.40 1.124652
503.50 1.14337
503.60 1.103938
503.70 1.086347
503.80 1.044127
503.90 1.033091
504.00 1.049696
504.10 1.005852
504.20 0.91943
504.30 0.9614921
504.40 1.094227
504.50 1.142204
504.60 1.14951
504.70 1.200284
504.80 1.208159
504.90 1.166001
505.00 1.132265
505.10 1.051529
505.20 0.9213701
505.30 0.9822286
505.40 1.131845
505.50 1.082634
505.60 1.012048
505.70 1.099559
505.80 1.129853
505.90 1.164727
506.00 1.134468
506.10 1.118064
506.20 1.150358
506.30 1.065555
506.40 1.01815
506.50 0.9741307
506.60 0.9066807
506.70 0.9641309
506.80 1.034801
506.90 1.01706
507.00 0.979472
507.10 1.085022
507.20 1.147636
507.30 1.058486
507.40 1.018545
507.50 1.119813
507.60 1.109262
507.70 1.038819
507.80 0.9648112
507.90 1.050727
508.00 1.156693
508.10 1.093414
508.20 0.980857
508.30 0.9437254
508.40 1.053777
508.50 1.101677
508.60 1.086792
508.70 1.052374
508.80 1.076812
508.90 1.086785
509.00 1.116588
509.10 1.074663
509.20 1.09496
509.30 1.287994
509.40 1.354586
509.50 1.188456
509.60 1.029893
509.70 1.035441
509.80 1.13798
509.90 1.083354
510.00 1.043475
510.10 1.05617
510.20 1.049345
510.30 0.9930743
510.40 0.9391514
510.50 0.9958855
510.60 1.05752
510.70 1.060965
510.80 0.9768504
510.90 0.9827988
511.00 1.112769
511.10 1.074373
511.20 1.066979
511.30 1.098212
511.40 1.077406
511.50 1.170345
511.60 1.216232
511.70 1.15572
511.80 1.172388
511.90 1.198803
512.00 1.093265
512.10 1.133135
512.20 1.141452
512.30 1.075877
512.40 1.049588
512.50 1.04554
512.60 1.030974
512.70 1.026674
512.80 0.9267763
512.90 0.9679024
513.00 1.043507
513.10 1.051147
513.20 1.025035
513.30 1.068618
513.40 1.161499
513.50 1.210626
513.60 1.193934
513.70 1.210035
513.80 1.308742
513.90 1.164301
514.00 1.113706
514.10 1.12854
514.20 1.187118
514.30 1.183311
514.40 1.164319
514.50 1.114664
514.60 1.032234
514.70 0.9829872
514.80 1.029441
514.90 1.212901
515.00 1.301708
515.10 1.064839
515.20 0.9533552
515.30 1.100515
515.40 1.044552
515.50 0.8975017
515.60 0.9794765
515.70 1.0827
515.80 1.270133
515.90 1.323483
516.00 1.24708
516.10 1.271569
516.20 1.335177
516.30 1.352492
516.40 1.276284
516.50 1.303337
516.60 1.171596
516.70 0.9913367
516.80 0.8099882
516.90 0.6083016
517.00 0.6245059
517.10 0.8097293
517.20 0.7444939
517.30 0.5582907
517.40 0.6222046
517.50 0.7434436
517.60 0.8231892
517.70 0.8467557
517.80 0.8538913
517.90 0.8987454
518.00 0.7980433
518.10 0.6903723
518.20 0.7672492
518.30 0.8929498
518.40 0.8133532
518.50 0.7734475
518.60 0.8781481
518.70 0.9556581
518.80 0.9771126
518.90 1.096869
519.00 1.100583
519.10 1.072006
519.20 1.097326
519.30 1.077572
519.40 0.9522919
519.50 0.9617095
519.60 1.086089
519.70 1.163198
519.80 1.22805
519.90 1.265828
520.00 1.194074
520.10 1.0586
520.20 0.9966401
520.30 1.02556
520.40 1.043933
520.50 1.011262
520.60 0.876698
520.70 0.864893
520.80 0.7802235
520.90 0.7023807
521.00 0.7130392
521.10 0.8357139
521.20 0.9788589
521.30 1.230012
521.40 1.311846
521.50 1.35048
521.60 1.419637
521.70 1.376917
521.80 1.262098
521.90 1.337744
522.00 1.46441
522.10 1.462935
522.20 1.460261
522.30 1.486607
522.40 1.448874
522.50 1.347416
522.60 1.2446
522.70 1.203341
522.80 1.307593
522.90 1.427983
523.00 1.441233
523.10 1.479572
523.20 1.530969
523.30 1.510676
523.40 1.484263
523.50 1.443037
523.60 1.477161
523.70 1.449279
523.80 1.498701
523.90 1.554906
524.00 1.539339
524.10 1.434267
524.20 1.34912
524.30 1.368565
524.40 1.45629
524.50 1.478193
524.60 1.371274
524.70 1.340001
524.80 1.361613
524.90 1.386458
525.00 1.359425
525.10 1.33817
525.20 1.284631
525.30 1.338764
525.40 1.364619
525.50 1.390655
525.60 1.494587
525.70 1.520732
525.80 1.536498
525.90 1.521039
526.00 1.48151
526.10 1.42141
526.20 1.315347
526.30 1.240097
526.40 1.236923
526.50 1.208718
526.60 1.148354
526.70 1.183376
526.80 1.234501
526.90 1.189989
527.00 1.102465
527.10 1.112081
527.20 1.098113
527.30 1.193891
527.40 1.346823
527.50 1.450432
527.60 1.471397
527.70 1.552275
527.80 1.500505
527.90 1.502959
528.00 1.618984
528.10 1.57843
528.20 1.476402
528.30 1.5262
528.40 1.449826
528.50 1.393582
528.60 1.505608
528.70 1.575152
528.80 1.670266
528.90 1.702165
529.00 1.614993
529.10 1.578505
529.20 1.559941
529.30 1.558606
529.40 1.58516
529.50 1.625246
529.60 1.620987
529.70 1.518449
529.80 1.318762
529.90 1.285708
530.00 1.409695
530.10 1.539053
530.20 1.562984
530.30 1.576633
530.40 1.708279
530.50 1.6814
530.60 1.707628
530.70 1.727046
530.80 1.625825
530.90 1.491473
531.00 1.567289
531.10 1.596673
531.20 1.554919
531.30 1.576974
531.40 1.59649
531.50 1.594095
531.60 1.624264
531.70 1.69412
531.80 1.650845
531.90 1.561096
532.00 1.559326
532.10 1.62601
532.20 1.59443
532.30 1.630802
532.40 1.629872
532.50 1.483414
532.60 1.468075
532.70 1.618888
532.80 1.484942
532.90 1.286083
533.00 1.222361
533.10 1.384619
533.20 1.567486
533.30 1.651503
533.40 1.60177
533.50 1.624915
533.60 1.700959
533.70 1.664047
533.80 1.545465
533.90 1.475326
534.00 1.48259
534.10 1.523249
534.20 1.533044
534.30 1.526012
534.40 1.513296
534.50 1.600535
534.60 1.622657
534.70 1.624085
534.80 1.561175
534.90 1.428866
535.00 1.410714
535.10 1.470727
535.20 1.547864
535.30 1.638426
535.40 1.802746
535.50 1.768566
535.60 1.755533
535.70 1.807594
535.80 1.807432
535.90 1.726185
536.00 1.710807
536.10 1.706912
536.20 1.685545
536.30 1.644007
536.40 1.641329
536.50 1.641553
536.60 1.665096
536.70 1.752507
536.80 1.742336
536.90 1.740094
537.00 1.696951
537.10 1.610477
537.20 1.496014
537.30 1.460343
537.40 1.467209
537.50 1.616201
537.60 1.81715
537.70 1.909877
537.80 1.889048
537.90 1.882093
538.00 1.903151
538.10 1.838724
538.20 1.844699
538.30 1.86338
538.40 1.826453
538.50 1.754282
538.60 1.777307
538.70 1.904969
538.80 2.033027
538.90 1.98523
539.00 1.869822
539.10 1.790614
539.20 1.75175
539.30 1.812123
539.40 1.783874
539.50 1.689299
539.60 1.665843
539.70 1.680708
539.80 1.523671
539.90 1.494627
540.00 1.693387
540.10 1.867163
540.20 1.887017
540.30 1.859913
540.40 1.891208
540.50 1.797324
540.60 1.553769
540.70 1.461293
540.80 1.598537
540.90 1.725013
541.00 1.668185
541.10 1.548978
541.20 1.552684
541.30 1.700112
541.40 1.832023
541.50 1.862151
541.60 1.833148
541.70 1.851262
541.80 1.943287
541.90 1.973642
542.00 1.988989
542.10 2.003075
542.20 1.938299
542.30 1.849746
542.40 1.843753
542.50 1.858547
542.60 1.867889
542.70 1.896975
542.80 1.984881
542.90 1.963861
543.00 1.852073
543.10 1.714215
543.20 1.707815
543.30 1.69364
543.40 1.613699
543.50 1.622398
543.60 1.65315
543.70 1.766189
543.80 1.913655
543.90 1.871308
544.00 1.848583
544.10 1.925746
544.20 1.97177
544.30 1.962162
544.40 2.015417
544.50 2.134298
544.60 2.001044
544.70 1.734564
544.80 1.517185
544.90 1.498086
545.00 1.515401
545.10 1.514758
545.20 1.414388
545.30 1.355496
545.40 1.349878
545.50 1.376636
545.60 1.376528
545.70 1.320902
545.80 1.310601
545.90 1.339873
546.00 1.430775
546.10 1.429385
546.20 1.466491
546.30 1.453346
546.40 1.409034
546.50 1.350957
546.60 1.41504
546.70 1.554473
546.80 1.666427
546.90 1.637362
547.00 1.56827
547.10 1.573908
547.20 1.64291
547.30 1.694286
547.40 1.561029
547.50 1.499891
547.60 1.571402
547.70 1.599585
547.80 1.566053
547.90 1.530214
548.00 1.538379
548.10 1.58949
548.20 1.686676
548.30 1.695311
548.40 1.659078
548.50 1.651334
548.60 1.72994
548.70 1.762987
548.80 1.763568
548.90 1.643327
549.00 1.552856
549.10 1.637204
549.20 1.763415
549.30 1.841311
549.40 1.783171
549.50 1.704802
549.60 1.737174
549.70 1.736722
549.80 1.642109
549.90 1.594991
550.00 1.581209
550.10 1.474164
550.20 1.435415
550.30 1.459873
550.40 1.483805
550.50 1.558488
550.60 1.586868
550.70 1.532975
550.80 1.494274
550.90 1.541583
551.00 1.566919
551.10 1.57366
551.20 1.50467
551.30 1.43784
551.40 1.43009
551.50 1.436904
551.60 1.465143
551.70 1.501992
551.80 1.538568
551.90 1.566162
552.00 1.61852
552.10 1.637005
552.20 1.64345
552.30 1.658327
552.40 1.694022
552.50 1.694523
552.60 1.642414
552.70 1.645442
552.80 1.683218
552.90 1.625988
553.00 1.601798
553.10 1.683191
553.20 1.699827
553.30 1.633381
553.40 1.535596
553.50 1.524437
553.60 1.59702
553.70 1.621442
553.80 1.583844
553.90 1.53778
554.00 1.568013
554.10 1.706887
554.20 1.696106
554.30 1.634812
554.40 1.59703
554.50 1.593696
554.60 1.652746
554.70 1.656501
554.80 1.651539
554.90 1.642057
555.00 1.696364
555.10 1.657253
555.20 1.643601
555.30 1.65651
555.40 1.746609
555.50 1.812261
555.60 1.751213
555.70 1.723459
555.80 1.677457
555.90 1.680416
556.00 1.773481
556.10 1.712552
556.20 1.657332
556.30 1.67982
556.40 1.701738
556.50 1.677497
556.60 1.6987
556.70 1.727547
556.80 1.742406
556.90 1.682271
557.00 1.688912
557.10 1.708182
557.20 1.698147
557.30 1.698698
557.40 1.698795
557.50 1.698801
557.60 1.698801
557.70 1.698801
557.80 1.698801
557.90 1.698801
558.00 1.698801
558.10 1.698797
558.20 1.698837
558.30 1.697608
558.40 1.702367
558.50 1.710364
558.60 1.737645
558.70 1.805301
558.80 1.746867
558.90 1.617608
559.00 1.549478
559.10 1.612753
559.20 1.698885
559.30 1.744071
559.40 1.757733
559.50 1.658748
559.60 1.608546
559.70 1.554617
559.80 1.565668
559.90 1.555487
560.00 1.451981
560.10 1.406931
560.20 1.472457
560.30 1.535795
560.40 1.564116
560.50 1.547645
560.60 1.544691
560.70 1.59741
560.80 1.632199
560.90 1.643213
561.00 1.616278
561.10 1.610906
561.20 1.645035
561.30 1.711708
561.40 1.670549
561.50 1.694309
561.60 1.665717
561.70 1.56064
561.80 1.54398
561.90 1.557624
562.00 1.605912
562.10 1.661955
562.20 1.635277
562.30 1.592266
562.40 1.62319
562.50 1.677847
562.60 1.723211
562.70 1.765473
562.80 1.718799
562.90 1.635757
563.00 1.645201
563.10 1.635442
563.20 1.530455
563.30 1.557397
563.40 1.702371
563.50 1.677623
563.60 1.681235
563.70 1.722999
563.80 1.636748
563.90 1.604422
564.00 1.729235
564.10 1.720424
564.20 1.689312
564.30 1.711355
564.40 1.689101
564.50 1.592091
564.60 1.630661
564.70 1.709938
564.80 1.735758
564.90 1.732697
565.00 1.722461
565.10 1.744302
565.20 1.857326
565.30 1.855903
565.40 1.850919
565.50 1.790051
565.60 1.791867
565.70 1.761704
565.80 1.736182
565.90 1.733874
566.00 1.82611
566.10 1.899157
566.20 1.843369
566.30 1.800603
566.40 1.747543
566.50 1.678839
566.60 1.737245
566.70 1.775531
566.80 1.788294
566.90 1.801588
567.00 1.782961
567.10 1.723395
567.20 1.656167
567.30 1.666929
567.40 1.719692
567.50 1.773682
567.60 1.836211
567.70 1.818029
567.80 1.80946
567.90 1.846611
568.00 1.908503
568.10 1.892519
568.20 1.736367
568.30 1.638582
568.40 1.695082
568.50 1.814635
568.60 1.863493
568.70 1.915951
568.80 1.890483
568.90 1.864284
569.00 1.813695
569.10 1.722897
569.20 1.756885
569.30 1.856744
569.40 1.896292
569.50 1.88891
569.60 1.960884
569.70 1.940398
569.80 1.897958
569.90 1.882948
570.00 1.862281
570.10 1.819554
570.20 1.823742
570.30 1.838929
570.40 1.832915
570.50 1.81149
570.60 1.865785
570.70 1.954034
570.80 2.042299
570.90 2.004474
571.00 1.930105
571.10 1.899584
571.20 2.002777
571.30 2.056307
571.40 2.023897
571.50 2.034331
571.60 2.043833
571.70 2.071714
571.80 2.0081
571.90 1.896616
572.00 1.861608
572.10 1.93965
572.20 1.995487
572.30 1.916242
572.40 1.880807
572.50 1.980858
572.60 1.973775
572.70 1.960297
572.80 1.938929
572.90 1.925305
573.00 1.93831
573.10 1.98589
573.20 1.972595
573.30 1.957659
573.40 1.990052
573.50 2.06527
573.60 2.058405
573.70 1.991864
573.80 1.979521
573.90 2.008975
574.00 2.052148
574.10 2.091281
574.20 2.100572
574.30 2.043304
574.40 1.992869
574.50 2.001006
574.60 2.069364
574.70 2.157563
574.80 2.203153
574.90 2.097597
575.00 2.125376
575.10 2.204575
575.20 2.181823
575.30 2.15444
575.40 2.196604
575.50 2.252539
575.60 2.213861
575.70 2.219326
575.80 2.211451
575.90 2.235902
576.00 2.217953
576.10 2.10941
576.20 2.052337
576.30 1.986454
576.40 1.950801
576.50 1.958475
576.60 1.967892
576.70 1.923035
576.80 1.875401
576.90 1.923669
577.00 2.016256
577.10 2.041937
577.20 2.001221
577.30 1.978698
577.40 2.012683
577.50 1.902407
577.60 1.926772
577.70 2.035231
577.80 1.98347
577.90 1.920219
578.00 1.956525
578.10 2.035288
578.20 2.096106
578.30 2.105056
578.40 2.051528
578.50 1.999717
578.60 1.993095
578.70 1.993875
578.80 1.941154
578.90 1.986954
579.00 2.034673
579.10 1.996224
579.20 1.992993
579.30 2.095456
579.40 2.152971
579.50 2.079349
579.60 2.107783
579.70 2.269375
579.80 2.238923
579.90 2.165159
580.00 2.143805
580.10 2.208982
580.20 2.172018
580.30 2.228074
580.40 2.302783
580.50 2.280462
580.60 2.263538
580.70 2.237752
580.80 2.268997
580.90 2.269292
581.00 2.213393
581.10 2.185118
581.20 2.235768
581.30 2.195512
581.40 2.051809
581.50 1.964801
581.60 1.937309
581.70 1.945543
581.80 2.031847
581.90 2.046548
582.00 1.910312
582.10 1.925595
582.20 2.017249
582.30 2.021509
582.40 1.917271
582.50 1.880054
582.60 1.922084
582.70 1.953563
582.80 1.940476
582.90 1.896654
583.00 1.870551
583.10 1.901003
583.20 2.01306
583.30 1.998625
583.40 2.017282
583.50 2.041517
583.60 2.059889
583.70 1.992307
583.80 2.008003
583.90 2.017049
584.00 1.944747
584.10 1.908042
584.20 1.997686
584.30 2.027601
584.40 1.970692
584.50 1.983741
584.60 1.975792
584.70 1.926619
584.80 1.900969
584.90 1.865284
585.00 1.883495
585.10 1.826656
585.20 1.794296
585.30 1.746538
585.40 1.830235
585.50 1.824473
585.60 1.797301
585.70 1.725624
585.80 1.630844
585.90 1.656933
586.00 1.720224
586.10 1.786013
586.20 1.83187
586.30 1.799337
586.40 1.724123
586.50 1.675038
586.60 1.65881
586.70 1.621469
586.80 1.665323
586.90 1.671129
587.00 1.637429
587.10 1.645507
587.20 1.71704
587.30 1.745657
587.40 1.663681
587.50 1.603609
587.60 1.508846
587.70 1.507374
587.80 1.520987
587.90 1.504299
588.00 1.434834
588.10 1.420926
588.20 1.422256
588.30 1.482992
588.40 1.473814
588.50 1.296873
588.60 1.200309
588.70 1.162399
588.80 1.061842
588.90 0.9011168
589.00 0.8349194
589.10 0.7066244
589.20 0.5734703
589.30 0.6588375
589.40 0.8906675
589.50 0.7769498
589.60 0.5756968
589.70 0.5970062
589.80 0.7535255
589.90 0.7550869
590.00 0.885888
590.10 1.014807
590.20 1.145153
590.30 1.158282
590.40 1.229088
590.50 1.311971
590.60 1.310739
590.70 1.293359
590.80 1.347183
590.90 1.393247
591.00 1.426382
591.10 1.459408
591.20 1.461343
591.30 1.462845
591.40 1.469529
591.50 1.487733
591.60 1.51673
591.70 1.654361
591.80 1.665127
591.90 1.562148
592.00 1.559089
592.10 1.589934
592.20 1.602812
592.30 1.532037
592.40 1.450961
592.50 1.462998
592.60 1.591303
592.70 1.65508
592.80 1.604765
592.90 1.53703
593.00 1.520318
593.10 1.534842
593.20 1.543722
593.30 1.558675
593.40 1.556176
593.50 1.60042
593.60 1.585515
593.70 1.672194
593.80 1.785058
593.90 1.799822
594.00 1.813343
594.10 1.85496
594.20 1.786717
594.30 1.731011
594.40 1.752297
594.50 1.785315
594.60 1.778473
594.70 1.777344
594.80 1.821944
594.90 1.760748
595.00 1.71788
595.10 1.785244
595.20 1.72891
595.30 1.600854
595.40 1.569071
595.50 1.716238
595.60 1.747712
595.70 1.666665
595.80 1.634084
595.90 1.685067
596.00 1.635688
596.10 1.579355
596.20 1.593958
596.30 1.645313
596.40 1.708872
596.50 1.67698
596.60 1.645585
596.70 1.679163
596.80 1.720363
596.90 1.740837
597.00 1.787308
597.10 1.812619
597.20 1.780601
597.30 1.707945
597.40 1.654076
597.50 1.6968
597.60 1.74725
597.70 1.779072
597.80 1.766678
597.90 1.73108
598.00 1.740604
598.10 1.680169
598.20 1.723133
598.30 1.765074
598.40 1.745872
598.50 1.741759
598.60 1.751253
598.70 1.803056
598.80 1.787653
598.90 1.771186
599.00 1.769763
599.10 1.805197
599.20 1.859349
599.30 1.953654
599.40 2.033405
599.50 2.010662
599.60 1.97787
599.70 1.956105
599.80 1.926313
599.90 1.914532
600.00 1.929612
600.10 1.925888
600.20 1.87789
600.30 1.857413
600.40 1.833346
600.50 1.80953
600.60 1.871979
600.70 1.899369
600.80 1.870374
600.90 1.900481
601.00 1.971102
601.10 1.931632
601.20 1.843383
601.30 1.882997
601.40 1.949517
601.50 1.950875
601.60 1.951069
601.70 1.966302
601.80 2.009787
601.90 2.011535
602.00 2.008414
602.10 1.975875
602.20 2.01356
602.30 2.039619
602.40 1.981649
602.50 1.95075
602.60 1.995671
602.70 2.09709
602.80 2.116427
602.90 2.088439
603.00 2.08409
603.10 2.083912
603.20 2.028443
603.30 1.962874
603.40 2.053484
603.50 2.165164
603.60 2.110501
603.70 1.950408
603.80 1.876764
603.90 1.908929
604.00 2.002104
604.10 2.080761
604.20 2.107207
604.30 2.101075
604.40 2.088548
604.50 2.12158
604.60 2.176211
604.70 2.190148
604.80 2.155821
604.90 2.192795
605.00 2.198433
605.10 2.172212
605.20 2.176552
605.30 2.208584
605.40 2.196765
605.50 2.163857
605.60 2.136486
605.70 2.182887
605.80 2.234145
605.90 2.233792
606.00 2.196044
606.10 2.197994
606.20 2.197209
606.30 2.193243
606.40 2.187776
606.50 2.096604
606.60 2.027431
606.70 2.029318
606.80 2.07367
606.90 2.102093
607.00 2.140448
607.10 2.204186
607.20 2.246631
607.30 2.25672
607.40 2.220032
607.50 2.245511
607.60 2.238235
607.70 2.22988
607.80 2.224834
607.90 2.254295
608.00 2.230803
608.10 2.113454
608.20 2.082429
608.30 2.09998
608.40 2.124547
608.50 2.122596
608.60 2.138749
608.70 2.185132
608.80 2.172026
608.90 2.197156
609.00 2.214149
609.10 2.207927
609.20 2.213663
609.30 2.236668
609.40 2.279708
609.50 2.325219
609.60 2.318055
609.70 2.290073
609.80 2.318515
609.90 2.309887
610.00 2.276045
610.10 2.212044
610.20 2.152888
610.30 2.046887
610.40 1.902061
610.50 1.876521
610.60 1.953901
610.70 2.147776
610.80 2.300983
610.90 2.297054
611.00 2.283116
611.10 2.29511
611.20 2.275921
611.30 2.240691
611.40 2.277558
611.50 2.31439
611.60 2.286775
611.70 2.277619
611.80 2.276329
611.90 2.25269
612.00 2.204487
612.10 2.116863
612.20 1.950562
612.30 1.802504
612.40 1.786011
612.50 1.885753
612.60 2.037889
612.70 2.206434
612.80 2.333819
612.90 2.345703
613.00 2.29468
613.10 2.319164
613.20 2.335446
613.30 2.31373
613.40 2.298992
613.50 2.314043
613.60 2.289148
613.70 2.25528
613.80 2.220441
613.90 2.235234
614.00 2.286695
614.10 2.328027
614.20 2.359244
614.30 2.328102
614.40 2.317469
614.50 2.328677
614.60 2.381559
614.70 2.414526
614.80 2.437321
614.90 2.351715
615.00 2.169977
615.10 2.088806
615.20 2.086376
615.30 2.125122
615.40 2.146108
615.50 2.172392
615.60 2.148085
615.70 2.101841
615.80 1.997238
615.90 1.893324
616.00 1.777213
616.10 1.63678
616.20 1.451459
616.30 1.302726
616.40 1.286946
616.50 1.287496
616.60 1.339769
616.70 1.452665
616.80 1.514995
616.90 1.486704
617.00 1.442959
617.10 1.465367
617.20 1.534997
617.30 1.61974
617.40 1.739316
617.50 1.722121
617.60 1.664123
617.70 1.664848
617.80 1.681283
617.90 1.71772
618.00 1.72035
618.10 1.756735
618.20 1.782117
618.30 1.748406
618.40 1.667269
618.50 1.640332
618.60 1.634666
618.70 1.603525
618.80 1.560123
618.90 1.504883
619.00 1.452958
619.10 1.427785
619.20 1.421695
619.30 1.446331
619.40 1.444886
619.50 1.502439
619.60 1.554565
619.70 1.536313
619.80 1.52901
619.90 1.542118
620.00 1.554211
620.10 1.54134
620.20 1.542294
620.30 1.614906
620.40 1.66848
620.50 1.663754
620.60 1.63288
620.70 1.667058
620.80 1.70678
620.90 1.701578
621.00 1.661618
621.10 1.611149
621.20 1.616618
621.30 1.581814
621.40 1.517439
621.50 1.449024
621.60 1.392175
621.70 1.350615
621.80 1.356125
621.90 1.374814
622.00 1.394061
622.10 1.483557
622.20 1.498472
622.30 1.408391
622.40 1.35484
622.50 1.357511
622.60 1.342097
622.70 1.261283
622.80 1.232007
622.90 1.308678
623.00 1.39693
623.10 1.371972
623.20 1.305425
623.30 1.301685
623.40 1.33835
623.50 1.401499
623.60 1.432295
623.70 1.467605
623.80 1.509093
623.90 1.458539
624.00 1.342394
624.10 1.313426
624.20 1.373388
624.30 1.392304
624.40 1.367905
624.50 1.364655
624.60 1.355
624.70 1.456091
624.80 1.503259
624.90 1.462125
625.00 1.477662
625.10 1.579688
625.20 1.634985
625.30 1.553034
625.40 1.527562
625.50 1.549286
625.60 1.564361
625.70 1.589176
625.80 1.619668
625.90 1.653115
626.00 1.646393
626.10 1.617485
626.20 1.589183
626.30 1.582225
626.40 1.66901
626.50 1.758937
626.60 1.762808
626.70 1.738474
626.80 1.74213
626.90 1.69312
627.00 1.642687
627.10 1.65809
627.20 1.730114
627.30 1.79063
627.40 1.832392
627.50 1.837107
627.60 1.765387
627.70 1.696905
627.80 1.683103
627.90 1.700293
628.00 1.702561
628.10 1.667641
628.20 1.672966
628.30 1.693755
628.40 1.736012
628.50 1.77666
628.60 1.825346
628.70 1.841345
628.80 1.872834
628.90 1.951842
629.00 1.956201
629.10 1.906447
629.20 1.865062
629.30 1.865026
629.40 1.908226
629.50 1.867418
629.60 1.764473
629.70 1.731007
629.80 1.832002
629.90 1.968771
630.00 1.89846
630.10 1.76626
630.20 1.768775
630.30 1.663878
630.40 1.957765
630.50 2.229451
630.60 2.162566
630.70 1.975107
630.80 1.906472
630.90 2.00928
631.00 2.108565
631.10 2.09528
631.20 2.090893
631.30 2.151498
631.40 2.151621
631.50 2.120361
631.60 2.139439
631.70 2.169052
631.80 2.190091
631.90 2.171027
632.00 2.141953
632.10 2.206669
632.20 2.243495
632.30 2.249392
632.40 2.2456
632.50 2.24483
632.60 2.220144
632.70 2.203275
632.80 2.264049
632.90 2.296777
633.00 2.332115
633.10 2.312614
633.20 2.332236
633.30 2.332835
633.40 2.314652
633.50 2.322093
633.60 2.310948
633.70 2.322185
633.80 2.320613
633.90 2.320084
634.00 2.329874
634.10 2.352183
634.20 2.384003
634.30 2.384195
634.40 2.39559
634.50 2.427539
634.60 2.463349
634.70 2.472854
634.80 2.466766
634.90 2.4885
635.00 2.526811
635.10 2.518759
635.20 2.455408
635.30 2.389586
635.40 2.40718
635.50 2.406102
635.60 2.346368
635.70 2.279829
635.80 2.292539
635.90 2.340001
636.00 2.244314
636.10 2.119184
636.20 2.154121
636.30 2.292703
636.40 2.363584
636.50 2.188995
636.60 2.150801
636.70 2.270596
636.80 2.261229
636.90 2.22167
637.00 2.251802
637.10 2.300654
637.20 2.271906
637.30 2.294971
637.40 2.325694
637.50 2.310036
637.60 2.236879
637.70 2.176869
637.80 2.167463
637.90 2.215102
638.00 2.208618
638.10 2.071487
638.20 1.934537
638.30 1.898847
638.40 1.924373
638.50 2.004514
638.60 2.06317
638.70 2.088464
638.80 2.021982
638.90 1.94054
639.00 1.921813
639.10 1.966347
639.20 2.037671
639.30 2.113728
639.40 2.184236
639.50 2.191146
639.60 2.211339
639.70 2.34045
639.80 2.401591
639.90 2.368464
640.00 2.318946
640.10 2.309362
640.20 2.342375
640.30 2.385744
640.40 2.414882
640.50 2.48705
640.60 2.592283
640.70 2.567718
640.80 2.506034
640.90 2.503853
641.00 2.534817
641.10 2.536008
641.20 2.552503
641.30 2.574485
641.40 2.572072
641.50 2.553502
641.60 2.560284
641.70 2.553184
641.80 2.55034
641.90 2.53681
642.00 2.51851
642.10 2.492234
642.20 2.440511
642.30 2.456488
642.40 2.504406
642.50 2.527806
642.60 2.553694
642.70 2.576854
642.80 2.64721
642.90 2.642483
643.00 2.574116
643.10 2.526485
643.20 2.536127
643.30 2.575274
643.40 2.584213
643.50 2.585936
643.60 2.605391
643.70 2.584874
643.80 2.531946
643.90 2.476347
644.00 2.43944
644.10 2.400579
644.20 2.407751
644.30 2.545056
644.40 2.677135
644.50 2.745175
644.60 2.771623
644.70 2.800964
644.80 2.811584
644.90 2.764179
645.00 2.626958
645.10 2.525926
645.20 2.561829
645.30 2.640534
645.40 2.69535
645.50 2.782815
645.60 2.820865
645.70 2.790168
645.80 2.765179
645.90 2.812195
646.00 2.829165
646.10 2.771486
646.20 2.668631
646.30 2.554273
646.40 2.478941
646.50 2.510334
646.60 2.650735
646.70 2.845962
646.80 2.958532
646.90 2.998742
647.00 2.999022
647.10 2.914896
647.20 2.840302
647.30 2.778368
647.40 2.80649
647.50 2.808088
647.60 2.83122
647.70 2.930104
647.80 2.999952
647.90 2.993709
648.00 2.92083
648.10 2.860509
648.20 2.83212
648.30 2.816696
648.40 2.785748
648.50 2.755106
648.60 2.758715
648.70 2.759348
648.80 2.754327
648.90 2.820295
649.00 2.864905
649.10 2.845743
649.20 2.801744
649.30 2.717195
649.40 2.615633
649.50 2.527974
649.60 2.47039
649.70 2.499819
649.80 2.591989
649.90 2.688939
650.00 2.72326
650.10 2.699301
650.20 2.734508
650.30 2.820352
650.40 2.911401
650.50 2.992444
650.60 3.008016
650.70 2.977415
650.80 2.995967
650.90 3.038367
651.00 3.032088
651.10 3.0094
651.20 3.036162
651.30 3.060335
651.40 3.015432
651.50 2.934136
651.60 2.911802
651.70 2.972452
651.80 3.017855
651.90 3.05638
652.00 3.045814
652.10 3.025631
652.20 3.071433
652.30 3.15803
652.40 3.177041
652.50 3.13552
652.60 3.125846
652.70 3.143629
652.80 3.132934
652.90 3.128427
653.00 3.132053
653.10 3.148669
653.20 3.162858
653.30 3.180879
653.40 3.206041
653.50 3.201744
653.60 3.198603
653.70 3.221592
653.80 3.249329
653.90 3.274795
654.00 3.326564
654.10 3.396393
654.20 3.38053
654.30 3.292138
654.40 3.238337
654.50 3.250737
654.60 3.216532
654.70 3.101068
654.80 3.060399
654.90 3.068982
655.00 3.049885
655.10 3.019658
655.20 2.991218
655.30 3.018308
655.40 3.047827
655.50 2.989005
655.60 2.942893
655.70 2.923702
655.80 2.937323
655.90 3.010209
656.00 3.020663
656.10 3.005019
656.20 2.982087
656.30 2.921879
656.40 2.836779
656.50 2.794653
656.60 2.797218
656.70 2.820051
656.80 2.883748
656.90 2.872466
657.00 2.887046
657.10 2.882048
657.20 2.811323
657.30 2.755025
657.40 2.673973
657.50 2.6304
657.60 2.690634
657.70 2.805119
657.80 2.867131
657.90 2.861953
658.00 2.874726
658.10 2.907194
658.20 2.909147
658.30 2.89074
658.40 2.901018
658.50 2.942175
658.60 2.979579
658.70 2.989155
658.80 3.020403
658.90 3.029137
659.00 2.996252
659.10 3.02326
659.20 3.024353
659.30 2.954407
659.40 2.847145
659.50 2.757489
659.60 2.758942
659.70 2.823108
659.80 2.865906
659.90 2.889469
660.00 2.920195
660.10 2.939315
660.20 2.913073
660.30 2.917823
660.40 2.978749
660.50 3.009036
660.60 2.99483
660.70 2.923578
660.80 2.85932
660.90 2.868468
661.00 2.843261
661.10 2.832807
661.20 2.868825
661.30 2.924147
661.40 2.975734
661.50 2.956219
661.60 2.937407
661.70 2.958371
661.80 2.948062
661.90 2.905032
662.00 2.853996
662.10 2.848625
662.20 2.85908
662.30 2.824916
662.40 2.767638
662.50 2.740886
662.60 2.732778
662.70 2.677038
662.80 2.650375
662.90 2.686618
663.00 2.75142
663.10 2.75927
663.20 2.714387
663.30 2.749549
663.40 2.824325
663.50 2.840493
663.60 2.768911
663.70 2.648875
663.80 2.609652
663.90 2.64305
664.00 2.67179
664.10 2.672029
664.20 2.70438
664.30 2.784627
664.40 2.802955
664.50 2.745459
664.60 2.734921
664.70 2.75292
664.80 2.761181
664.90 2.747802
665.00 2.692656
665.10 2.624551
665.20 2.491857
665.30 2.364589
665.40 2.320487
665.50 2.388762
665.60 2.464362
665.70 2.464422
665.80 2.447584
665.90 2.453162
666.00 2.491382
666.10 2.490389
666.20 2.473151
666.30 2.467645
666.40 2.464838
666.50 2.473824
666.60 2.492941
666.70 2.554764
666.80 2.606783
666.90 2.616556
667.00 2.629365
667.10 2.633878
667.20 2.606189
667.30 2.589066
667.40 2.619085
667.50 2.614642
667.60 2.583098
667.70 2.557202
667.80 2.552436
667.90 2.5463
668.00 2.508787
668.10 2.404693
668.20 2.307696
668.30 2.221949
668.40 2.164571
668.50 2.182265
668.60 2.192515
668.70 2.235521
668.80 2.263567
668.90 2.26274
669.00 2.300046
669.10 2.333062
669.20 2.297923
669.30 2.236491
669.40 2.233215
669.50 2.246309
669.60 2.259005
669.70 2.271634
669.80 2.310584
669.90 2.377325
670.00 2.385451
670.10 2.365167
670.20 2.383493
670.30 2.404908
670.40 2.426303
670.50 2.446805
670.60 2.415596
670.70 2.396782
670.80 2.416201
670.90 2.421035
671.00 2.420617
671.10 2.419149
671.20 2.41157
671.30 2.394151
671.40 2.347753
671.50 2.284164
671.60 2.195061
671.70 2.120777
671.80 2.026979
671.90 1.935183
672.00 1.896965
672.10 1.901666
672.20 1.94096
672.30 2.019758
672.40 2.052127
672.50 2.026578
672.60 2.01522
672.70 2.042754
672.80 2.079114
672.90 2.112787
673.00 2.161815
673.10 2.1907
673.20 2.15017
673.30 2.06189
673.40 2.037817
673.50 2.066298
673.60 2.122809
673.70 2.172155
673.80 2.191965
673.90 2.186553
674.00 2.178446
674.10 2.188039
674.20 2.170652
674.30 2.159151
674.40 2.186713
674.50 2.21621
674.60 2.253017
674.70 2.21928
674.80 2.116668
674.90 2.026825
675.00 1.961927
675.10 1.966171
675.20 1.965066
675.30 1.970056
675.40 2.022402
675.50 2.077913
675.60 2.118813
675.70 2.117559
675.80 2.123105
675.90 2.137432
676.00 2.102443
676.10 2.061482
676.20 2.072612
676.30 2.136145
676.40 2.190823
676.50 2.18733
676.60 2.209438
676.70 2.235666
676.80 2.237371
676.90 2.215914
677.00 2.192798
677.10 2.219433
677.20 2.20675
677.30 2.145241
677.40 2.113673
677.50 2.132301
677.60 2.219089
677.70 2.281382
677.80 2.272225
677.90 2.229711
678.00 2.187049
678.10 2.157517
678.20 2.143142
678.30 2.10865
678.40 2.046129
678.50 1.978844
678.60 1.916812
678.70 1.905388
678.80 1.960307
678.90 2.026749
679.00 2.038107
679.10 2.02175
679.20 2.024779
679.30 2.049396
679.40 2.050341
679.50 2.01373
679.60 1.980404
679.70 1.993866
679.80 2.010321
679.90 1.991598
680.00 1.993118
680.10 2.028553
680.20 2.079292
680.30 2.100542
680.40 2.08225
680.50 2.072186
680.60 2.057624
680.70 2.041549
680.80 2.031287
680.90 2.031751
681.00 2.02659
681.10 2.039333
681.20 2.062731
681.30 2.069536
681.40 2.122942
681.50 2.160028
681.60 2.132357
681.70 2.052632
681.80 2.012355
681.90 2.029297
682.00 2.070147
682.10 2.076917
682.20 2.058645
682.30 2.05152
682.40 2.010301
682.50 1.957976
682.60 1.986918
682.70 2.073499
682.80 2.175493
682.90 2.187322
683.00 2.16198
683.10 2.159908
683.20 2.079898
683.30 2.026822
683.40 2.059741
683.50 2.101444
683.60 2.090686
683.70 2.053663
683.80 2.047401
683.90 2.047223
684.00 2.048767
684.10 2.040698
684.20 2.055091
684.30 2.083689
684.40 2.106907
684.50 2.121688
684.60 2.113434
684.70 2.070578
684.80 2.045744
684.90 2.03589
685.00 2.04395
685.10 2.026054
685.20 1.974935
685.30 1.975913
685.40 1.989089
685.50 1.997051
685.60 1.989949
685.70 2.012952
685.80 2.047478
685.90 2.010834
686.00 1.978289
686.10 2.023506
686.20 2.041782
686.30 2.004412
686.40 1.997844
686.50 2.049207
686.60 2.102507
686.70 2.070856
686.80 2.025167
686.90 2.023852
687.00 1.99891
687.10 1.949001
687.20 1.959823
687.30 2.017263
687.40 2.089526
687.50 2.103233
687.60 2.100961
687.70 2.130023
687.80 2.165445
687.90 2.227697
688.00 2.241119
688.10 2.22751
688.20 2.202243
688.30 2.177573
688.40 2.133827
688.50 2.078458
688.60 2.056611
688.70 2.0566
688.80 2.102976
688.90 2.159438
689.00 2.166593
689.10 2.132441
689.20 2.117172
689.30 2.151674
689.40 2.231934
689.50 2.282683
689.60 2.288689
689.70 2.255098
689.80 2.234613
689.90 2.232746
690.00 2.210974
690.10 2.180249
690.20 2.159466
690.30 2.129443
690.40 2.088145
690.50 2.08754
690.60 2.173328
690.70 2.308228
690.80 2.359233
690.90 2.359084
691.00 2.35897
691.10 2.356924
691.20 2.358378
691.30 2.389251
691.40 2.397516
691.50 2.415426
691.60 2.424764
691.70 2.362239
691.80 2.236288
691.90 2.138991
692.00 2.087914
692.10 2.060793
692.20 2.135723
692.30 2.293518
692.40 2.502448
692.50 2.580404
692.60 2.517147
692.70 2.510539
692.80 2.553088
692.90 2.586185
693.00 2.579339
693.10 2.577298
693.20 2.622416
693.30 2.676396
693.40 2.695956
693.50 2.674214
693.60 2.654966
693.70 2.679942
693.80 2.700024
693.90 2.670287
694.00 2.652617
694.10 2.677146
694.20 2.736847
694.30 2.802801
694.40 2.860019
694.50 2.863909
694.60 2.870836
694.70 2.906322
694.80 2.953235
694.90 3.013137
695.00 3.015967
695.10 3.022391
695.20 3.020711
695.30 2.943518
695.40 2.869031
695.50 2.805596
695.60 2.799709
695.70 2.791823
695.80 2.786024
695.90 2.81296
696.00 2.821436
696.10 2.81216
696.20 2.771183
696.30 2.743366
696.40 2.813922
696.50 2.902349
696.60 2.92427
696.70 2.892155
696.80 2.867289
696.90 2.855268
697.00 2.862116
697.10 2.88613
697.20 2.902463
697.30 2.860024
697.40 2.817465
697.50 2.86114
697.60 2.900183
697.70 2.927439
697.80 2.943961
697.90 2.938488
698.00 2.965449
698.10 2.91898
698.20 2.862815
698.30 2.927387
698.40 2.987456
698.50 3.002876
698.60 2.990347
698.70 2.994501
698.80 3.014061
698.90 3.025002
699.00 3.016002
699.10 2.980472
699.20 2.954753
699.30 2.938777
699.40 2.917037
699.50 2.923163
699.60 2.980791
699.70 3.045646
699.80 3.064106
699.90 3.027864
700.00 2.9895
700.10 3.025354
700.20 3.071352
700.30 3.058927
700.40 3.053235
700.50 3.059793
700.60 3.055627
700.70 3.041298
700.80 3.067299
700.90 3.134066
701.00 3.099455
701.10 3.014751
701.20 3.087882
701.30 3.22909
701.40 3.267607
701.50 3.250576
701.60 3.220275
701.70 3.213551
701.80 3.229248
701.90 3.234139
702.00 3.267342
702.10 3.309515
702.20 3.291388
702.30 3.261951
702.40 3.259522
702.50 3.216235
702.60 3.165477
702.70 3.172682
702.80 3.227317
702.90 3.340976
703.00 3.455953
703.10 3.507805
703.20 3.526665
703.30 3.516116
703.40 3.493914
703.50 3.496254
703.60 3.537436
703.70 3.591829
703.80 3.636269
703.90 3.702346
704.00 3.720766
704.10 3.698776
704.20 3.721833
704.30 3.812684
704.40 3.904083
704.50 3.934482
704.60 3.914552
704.70 3.88704
704.80 3.910913
704.90 3.95788
705.00 3.954695
705.10 3.907804
705.20 3.879947
705.30 3.833075
705.40 3.66425
705.50 3.369563
705.60 3.057978
705.70 2.875266
705.80 2.866478
705.90 2.893262
706.00 2.922254
706.10 2.955302
706.20 2.911598
706.30 2.840228
706.40 2.840207
706.50 2.870915
706.60 2.908066
706.70 2.942849
706.80 2.990873
706.90 3.0397
707.00 3.043824
707.10 3.043919
707.20 3.07254
707.30 3.104625
707.40 3.144987
707.50 3.203158
707.60 3.24527
707.70 3.214937
707.80 3.149448
707.90 3.122475
708.00 3.159271
708.10 3.22913
708.20 3.232669
708.30 3.195172
708.40 3.165267
708.50 3.167445
708.60 3.179433
708.70 3.119084
708.80 2.929685
708.90 2.645847
709.00 2.451537
709.10 2.369509
709.20 2.385346
709.30 2.474526
709.40 2.545391
709.50 2.574376
709.60 2.556969
709.70 2.534982
709.80 2.533788
709.90 2.554249
710.00 2.608097
710.10 2.645599
710.20 2.669518
710.30 2.678849
710.40 2.680824
710.50 2.671538
710.60 2.664762
710.70 2.680488
710.80 2.721258
710.90 2.788054
711.00 2.838182
711.10 2.889327
711.20 2.909677
711.30 2.885822
711.40 2.880314
711.50 2.900768
711.60 2.893576
711.70 2.872877
711.80 2.894897
711.90 2.926488
712.00 2.957203
712.10 2.993334
712.20 3.021601
712.30 3.062897
712.40 3.059324
712.50 2.92961
712.60 2.666743
712.70 2.359161
712.80 2.160993
712.90 2.126962
713.00 2.172694
713.10 2.224467
713.20 2.271048
713.30 2.280832
713.40 2.266306
713.50 2.247153
713.60 2.220353
713.70 2.20349
713.80 2.197583
713.90 2.21449
714.00 2.257476
714.10 2.293877
714.20 2.302871
714.30 2.306904
714.40 2.322768
714.50 2.353745
714.60 2.355308
714.70 2.324868
714.80 2.32764
714.90 2.301905
715.00 2.284945
715.10 2.345063
715.20 2.417806
715.30 2.492959
715.40 2.566082
715.50 2.6137
715.60 2.630267
715.70 2.626202
715.80 2.629579
715.90 2.627154
716.00 2.589498
716.10 2.536319
716.20 2.504272
716.30 2.495946
716.40 2.505644
716.50 2.525039
716.60 2.553878
716.70 2.606683
716.80 2.638527
716.90 2.642378
717.00 2.6464
717.10 2.653263
717.20 2.670911
717.30 2.678611
717.40 2.676014
717.50 2.652004
717.60 2.640246
717.70 2.661009
717.80 2.672969
717.90 2.69589
718.00 2.730787
718.10 2.765389
718.20 2.783197
718.30 2.772443
718.40 2.787265
718.50 2.843435
718.60 2.895626
718.70 2.905997
718.80 2.871068
718.90 2.829285
719.00 2.840643
719.10 2.896528
719.20 2.938001
719.30 2.935297
719.40 2.917665
719.50 2.945455
719.60 2.96522
719.70 2.909524
719.80 2.805726
719.90 2.751779
720.00 2.752246
720.10 2.71816
720.20 2.662882
720.30 2.615721
720.40 2.601225
720.50 2.632621
720.60 2.658513
720.70 2.673255
720.80 2.687553
720.90 2.683558
721.00 2.685767
721.10 2.708628
721.20 2.728169
721.30 2.749889
721.40 2.789278
721.50 2.819984
721.60 2.852134
721.70 2.86123
721.80 2.864892
721.90 2.911736
722.00 2.940792
722.10 2.96843
722.20 2.983611
722.30 2.981222
722.40 3.033308
722.50 3.064972
722.60 3.078168
722.70 3.105519
722.80 3.109272
722.90 3.099848
723.00 3.085493
723.10 3.064835
723.20 3.025812
723.30 3.00842
723.40 3.009263
723.50 3.051362
723.60 3.132545
723.70 3.140555
723.80 3.128693
723.90 3.202329
724.00 3.29544
724.10 3.285337
724.20 3.154779
724.30 3.038999
724.40 3.04242
724.50 3.111404
724.60 3.179636
724.70 3.232512
724.80 3.235809
724.90 3.23492
725.00 3.275115
725.10 3.353278
725.20 3.412499
725.30 3.370269
725.40 3.269579
725.50 3.262047
725.60 3.32502
725.70 3.378228
725.80 3.414533
725.90 3.397938
726.00 3.413387
726.10 3.468305
726.20 3.491138
726.30 3.486332
726.40 3.486284
726.50 3.506873
726.60 3.533691
726.70 3.524752
726.80 3.516315
726.90 3.507226
727.00 3.483446
727.10 3.472303
727.20 3.460488
727.30 3.451747
727.40 3.442921
727.50 3.446709
727.60 3.473376
727.70 3.523379
727.80 3.509802
727.90 3.467053
728.00 3.513913
728.10 3.605732
728.20 3.632677
728.30 3.578886
728.40 3.581978
728.50 3.667861
728.60 3.761383
728.70 3.777379
728.80 3.723715
728.90 3.681283
729.00 3.688227
729.10 3.707739
729.20 3.728587
729.30 3.709269
729.40 3.673248
729.50 3.645923
729.60 3.63255
729.70 3.695666
729.80 3.769754
729.90 3.785411
730.00 3.749041
730.10 3.729656
730.20 3.774653
730.30 3.849679
730.40 3.86583
730.50 3.829698
730.60 3.813063
730.70 3.821973
730.80 3.835521
730.90 3.853561
731.00 3.868348
731.10 3.849257
731.20 3.826064
731.30 3.858858
731.40 3.906058
731.50 3.903709
731.60 3.908579
731.70 3.952706
731.80 3.974026
731.90 3.901034
732.00 3.805966
732.10 3.80427
732.20 3.890286
732.30 3.950572
732.40 3.937226
732.50 3.884888
732.60 3.782174
732.70 3.651363
732.80 3.622089
732.90 3.743668
733.00 3.880743
733.10 3.956713
733.20 3.99592
733.30 3.996703
733.40 3.987393
733.50 3.996848
733.60 4.039022
733.70 4.090542
733.80 4.090887
733.90 3.968113
734.00 3.911809
734.10 4.081661
734.20 4.248002
734.30 4.299091
734.40 4.140861
734.50 3.935284
734.60 3.924819
734.70 3.97343
734.80 4.031341
734.90 4.079481
735.00 4.077027
735.10 4.048818
735.20 4.03593
735.30 4.06165
735.40 4.101072
735.50 4.115341
735.60 4.091965
735.70 4.046284
735.80 3.965516
735.90 3.930252
736.00 3.973652
736.10 4.007789
736.20 4.017355
736.30 3.962198
736.40 3.946609
736.50 3.992503
736.60 4.023682
736.70 4.070664
736.80 4.078896
736.90 4.160661
737.00 4.322339
737.10 4.391781
737.20 4.416788
737.30 4.34659
737.40 4.22514
737.50 4.179542
737.60 4.137542
737.70 4.147214
737.80 4.194898
737.90 4.204031
738.00 4.235058
738.10 4.292143
738.20 4.306034
738.30 4.290009
738.40 4.275127
738.50 4.270918
738.60 4.304765
738.70 4.317558
738.80 4.310145
738.90 4.327131
739.00 4.309978
739.10 4.301918
739.20 4.324537
739.30 4.347357
739.40 4.37119
739.50 4.341369
739.60 4.289435
739.70 4.273903
739.80 4.27031
739.90 4.26238
740.00 4.242163
740.10 4.221879
740.20 4.213126
740.30 4.220858
740.40 4.229216
740.50 4.248397
740.60 4.285007
740.70 4.282359
740.80 4.239109
740.90 4.222418
741.00 4.262446
741.10 4.307163
741.20 4.304635
741.30 4.295782
741.40 4.32657
741.50 4.363754
741.60 4.379128
741.70 4.367977
741.80 4.345778
741.90 4.311591
742.00 4.275974
742.10 4.257017
742.20 4.239458
742.30 4.220692
742.40 4.205262
742.50 4.240617
742.60 4.309318
742.70 4.357223
742.80 4.377542
742.90 4.376831
743.00 4.386542
743.10 4.416865
743.20 4.4298
743.30 4.4274
743.40 4.408197
743.50 4.333214
743.60 4.302754
743.70 4.346363
743.80 4.363736
743.90 4.415253
744.00 4.533593
744.10 4.567123
744.20 4.50256
744.30 4.423924
744.40 4.362052
744.50 4.340859
744.60 4.330099
744.70 4.319452
744.80 4.295848
744.90 4.266401
745.00 4.280003
745.10 4.327953
745.20 4.394119
745.30 4.448468
745.40 4.451029
745.50 4.423886
745.60 4.40591
745.70 4.402741
745.80 4.396073
745.90 4.400105
746.00 4.425408
746.10 4.438546
746.20 4.380837
746.30 4.292882
746.40 4.275625
746.50 4.313637
746.60 4.37376
746.70 4.415402
746.80 4.415251
746.90 4.437503
747.00 4.475558
747.10 4.502946
747.20 4.491126
747.30 4.452433
747.40 4.478458
747.50 4.494429
747.60 4.43622
747.70 4.408655
747.80 4.442451
747.90 4.495305
748.00 4.513169
748.10 4.475961
748.20 4.430084
748.30 4.426804
748.40 4.490262
748.50 4.541609
748.60 4.51469
748.70 4.438395
748.80 4.402635
748.90 4.440067
749.00 4.449316
749.10 4.399994
749.20 4.379953
749.30 4.391531
749.40 4.411947
749.50 4.42332
749.60 4.405788
749.70 4.36185
749.80 4.355428
749.90 4.450718
750.00 4.57833
750.10 4.64767
750.20 4.616306
750.30 4.522703
750.40 4.477936
750.50 4.521231
750.60 4.565934
750.70 4.537435
750.80 4.476058
750.90 4.446293
751.00 4.470981
751.10 4.507588
751.20 4.500311
751.30 4.473471
751.40 4.470097
751.50 4.509029
751.60 4.593324
751.70 4.65702
751.80 4.674971
751.90 4.651517
752.00 4.592214
752.10 4.580002
752.20 4.621795
752.30 4.675753
752.40 4.719616
752.50 4.691941
752.60 4.632572
752.70 4.55758
752.80 4.501065
752.90 4.497758
753.00 4.497641
753.10 4.493192
753.20 4.498363
753.30 4.530233
753.40 4.537792
753.50 4.537918
753.60 4.559235
753.70 4.586068
753.80 4.625826
753.90 4.643951
754.00 4.642916
754.10 4.662916
754.20 4.678169
754.30 4.647903
754.40 4.592112
754.50 4.5896
754.60 4.636935
754.70 4.650596
754.80 4.618147
754.90 4.575965
755.00 4.580553
755.10 4.628044
755.20 4.630624
755.30 4.601965
755.40 4.613103
755.50 4.630184
755.60 4.636383
755.70 4.649044
755.80 4.654679
755.90 4.671934
756.00 4.683922
756.10 4.686488
756.20 4.687881
756.30 4.664848
756.40 4.66442
756.50 4.66027
756.60 4.625153
756.70 4.613957
756.80 4.601567
756.90 4.566228
757.00 4.539785
757.10 4.543433
757.20 4.602455
757.30 4.713435
757.40 4.784767
757.50 4.784841
757.60 4.763808
757.70 4.710235
757.80 4.667364
757.90 4.654975
758.00 4.620695
758.10 4.627912
758.20 4.68421
758.30 4.751876
758.40 4.782544
758.50 4.709622
758.60 4.666254
758.70 4.71677
758.80 4.7142
758.90 4.610647
759.00 4.439451
759.10 4.271954
759.20 4.190346
759.30 4.204169
759.40 4.253944
759.50 4.281182
759.60 4.290967
759.70 4.280875
759.80 4.31403
759.90 4.414504
760.00 4.518289
760.10 4.5825
760.20 4.512654
760.30 4.394454
760.40 4.323057
760.50 4.252662
760.60 4.258621
760.70 4.31585
760.80 4.348347
760.90 4.366824
761.00 4.336959
761.10 4.262615
761.20 4.2566
761.30 4.362163
761.40 4.452411
761.50 4.444597
761.60 4.378398
761.70 4.365191
761.80 4.447943
761.90 4.545914
762.00 4.593614
762.10 4.592725
762.20 4.56926
762.30 4.530471
762.40 4.503339
762.50 4.54431
762.60 4.565795
762.70 4.520046
762.80 4.422136
762.90 4.276641
763.00 4.137507
763.10 4.011872
763.20 4.02827
763.30 4.159384
763.40 4.182069
763.50 4.149325
763.60 4.152029
763.70 4.140098
763.80 4.107878
763.90 4.105005
764.00 4.135024
764.10 4.111346
764.20 4.07663
764.30 4.121584
764.40 4.180603
764.50 4.180493
764.60 4.111649
764.70 4.078251
764.80 4.169536
764.90 4.261912
765.00 4.263427
765.10 4.185731
765.20 4.093986
765.30 4.114957
765.40 4.197452
765.50 4.226795
765.60 4.202139
765.70 4.098256
765.80 4.062983
765.90 4.182247
766.00 4.224398
766.10 4.149126
766.20 4.049037
766.30 3.904378
766.40 3.728874
766.50 3.439963
766.60 3.027235
766.70 2.78101
766.80 2.836573
766.90 3.116908
767.00 3.479297
767.10 3.71217
767.20 3.73357
767.30 3.647261
767.40 3.598269
767.50 3.591937
767.60 3.650349
767.70 3.744557
767.80 3.768822
767.90 3.747162
768.00 3.702186
768.10 3.705853
768.20 3.787861
768.30 3.83152
768.40 3.829322
768.50 3.80163
768.60 3.790525
768.70 3.84228
768.80 3.890699
768.90 3.89704
769.00 3.885005
769.10 3.870269
769.20 3.866114
769.30 3.885415
769.40 3.91289
769.50 3.907549
769.60 3.856302
769.70 3.782548
769.80 3.657056
769.90 3.398515
770.00 3.088166
770.10 2.941067
770.20 3.047489
770.30 3.336201
770.40 3.612364
770.50 3.757899
770.60 3.792845
770.70 3.739154
770.80 3.671428
770.90 3.676859
771.00 3.76796
771.10 3.870864
771.20 3.93488
771.30 3.991114
771.40 4.051838
771.50 3.984559
771.60 3.833748
771.70 3.790255
771.80 3.826312
771.90 3.87885
772.00 3.841515
772.10 3.715078
772.20 3.743611
772.30 3.839293
772.40 3.825734
772.50 3.82708
772.60 3.886247
772.70 3.956669
772.80 4.011855
772.90 4.02179
773.00 4.007855
773.10 4.029561
773.20 4.058178
773.30 4.050847
773.40 4.043975
773.50 4.063472
773.60 4.089715
773.70 4.08834
773.80 4.056473
773.90 4.029092
774.00 4.031011
774.10 4.065293
774.20 4.109738
774.30 4.114408
774.40 4.06936
774.50 4.028118
774.60 4.003989
774.70 3.986455
774.80 3.962583
774.90 3.9238
775.00 3.903408
775.10 3.874706
775.20 3.814138
775.30 3.746532
775.40 3.670583
775.50 3.610109
775.60 3.643855
775.70 3.745177
775.80 3.83445
775.90 3.881608
776.00 3.878099
776.10 3.887151
776.20 3.895015
776.30 3.844405
776.40 3.803456
776.50 3.783051
776.60 3.77272
776.70 3.797452
776.80 3.821875
776.90 3.858572
777.00 3.912003
777.10 3.939102
777.20 3.975197
777.30 4.04027
777.40 4.062128
777.50 4.041981
777.60 4.051799
777.70 4.057408
777.80 4.017269
777.90 3.985375
778.00 3.977903
778.10 3.970634
778.20 3.965912
778.30 3.942115
778.40 3.874023
778.50 3.818607
778.60 3.831214
778.70 3.863302
778.80 3.873664
778.90 3.872474
779.00 3.868803
779.10 3.887211
779.20 3.948785
779.30 3.992933
779.40 4.008185
779.50 4.078271
779.60 4.142143
779.70 4.038339
779.80 3.861065
779.90 3.790036
780.00 3.80435
780.10 3.87013
780.20 3.917524
780.30 3.918503
780.40 3.967193
780.50 4.06423
780.60 4.13416
780.70 4.158069
780.80 4.199626
780.90 4.268403
781.00 4.277329
781.10 4.211193
781.20 4.109754
781.30 4.040339
781.40 4.064798
781.50 4.159944
781.60 4.257655
781.70 4.308494
781.80 4.287145
781.90 4.214576
782.00 4.193539
782.10 4.239411
782.20 4.273093
782.30 4.280426
782.40 4.243044
782.50 4.157487
782.60 4.053944
782.70 3.988964
782.80 4.014684
782.90 4.027045
783.00 3.985219
783.10 3.938035
783.20 3.874924
783.30 3.846322
783.40 3.884415
783.50 3.943039
783.60 3.978622
783.70 3.992617
783.80 4.014706
783.90 4.05507
784.00 4.105936
784.10 4.131814
784.20 4.120349
784.30 4.106663
784.40 4.078878
784.50 4.029111
784.60 4.009136
784.70 4.067611
784.80 4.141272
784.90 4.160362
785.00 4.140007
785.10 4.096655
785.20 4.103989
785.30 4.224812
785.40 4.328437
785.50 4.253454
785.60 4.118358
785.70 4.088449
785.80 4.10519
785.90 4.147603
786.00 4.181516
786.10 4.147633
786.20 4.141299
786.30 4.161357
786.40 4.113927
786.50 4.063078
786.60 4.023875
786.70 4.005776
786.80 4.086316
786.90 4.179855
787.00 4.2043
787.10 4.244877
787.20 4.299478
787.30 4.270907
787.40 4.168403
787.50 4.056249
787.60 4.011638
787.70 4.056354
787.80 4.135882
787.90 4.23948
788.00 4.324647
788.10 4.358857
788.20 4.389268
788.30 4.37579
788.40 4.289434
788.50 4.244663
788.60 4.262159
788.70 4.273988
788.80 4.277892
788.90 4.236308
789.00 4.192663
789.10 4.296187
789.20 4.436727
789.30 4.412296
789.40 4.315548
789.50 4.286156
789.60 4.3052
789.70 4.317842
789.80 4.309111
789.90 4.310515
790.00 4.325031
790.10 4.318968
790.20 4.286385
790.30 4.268128
790.40 4.298973
790.50 4.354956
790.60 4.401072
790.70 4.40877
790.80 4.347443
790.90 4.27132
791.00 4.215587
791.10 4.185204
791.20 4.200535
791.30 4.214785
791.40 4.326234
791.50 4.53591
791.60 4.488864
791.70 4.172236
791.80 4.020898
791.90 4.125143
792.00 4.242893
792.10 4.25501
792.20 4.253176
792.30 4.339167
792.40 4.389331
792.50 4.355468
792.60 4.289107
792.70 4.219343
792.80 4.23862
792.90 4.304248
793.00 4.34755
793.10 4.411333
793.20 4.486019
793.30 4.512503
793.40 4.466613
793.50 4.368885
793.60 4.308879
793.70 4.314762
793.80 4.322792
793.90 4.323958
794.00 4.330985
794.10 4.33
794.20 4.331431
794.30 4.36579
794.40 4.427922
794.50 4.452021
794.60 4.394028
794.70 4.310548
794.80 4.27938
794.90 4.301982
795.00 4.339479
795.10 4.362655
795.20 4.3587
795.30 4.382911
795.40 4.455366
795.50 4.498657
795.60 4.507903
795.70 4.508143
795.80 4.480333
795.90 4.462914
796.00 4.485211
796.10 4.495211
796.20 4.470149
796.30 4.450412
796.40 4.501079
796.50 4.607766
796.60 4.652819
796.70 4.574806
796.80 4.396305
796.90 4.309517
797.00 4.423364
797.10 4.509185
797.20 4.501182
797.30 4.527656
797.40 4.566188
797.50 4.601989
797.60 4.621804
797.70 4.580229
797.80 4.548062
797.90 4.560545
798.00 4.603075
798.10 4.670555
798.20 4.644891
798.30 4.508682
798.40 4.431859
798.50 4.433791
798.60 4.464792
798.70 4.522666
798.80 4.532378
798.90 4.525055
799.00 4.556856
799.10 4.537333
799.20 4.530434
799.30 4.609588
799.40 4.646235
799.50 4.611662
799.60 4.503206
799.70 4.362897
799.80 4.326123
799.90 4.357453
800.00 4.399968
800.10 4.472993
800.20 4.531595
800.30 4.570677
800.40 4.609584
800.50 4.617919
800.60 4.589461
800.70 4.550504
800.80 4.537293
800.90 4.555391
801.00 4.585048
801.10 4.588721
801.20 4.581362
801.30 4.632688
801.40 4.69883
801.50 4.731486
801.60 4.734186
801.70 4.676107
801.80 4.614027
801.90 4.620008
802.00 4.66087
802.10 4.71791
802.20 4.738844
802.30 4.680776
802.40 4.627927
802.50 4.601056
802.60 4.613116
802.70 4.689711
802.80 4.731456
802.90 4.700909
803.00 4.648803
803.10 4.625635
803.20 4.672913
803.30 4.720429
803.40 4.707306
803.50 4.688644
803.60 4.677547
803.70 4.670757
803.80 4.692154
803.90 4.716557
804.00 4.726459
804.10 4.722728
804.20 4.68377
804.30 4.647957
804.40 4.657374
804.50 4.6744
804.60 4.689567
804.70 4.699774
804.80 4.671512
804.90 4.622482
805.00 4.624715
805.10 4.691777
805.20 4.766505
805.30 4.838835
805.40 4.878454
805.50 4.869898
805.60 4.839107
805.70 4.784001
805.80 4.774287
805.90 4.821691
806.00 4.83782
806.10 4.839272
806.20 4.865781
806.30 4.883712
806.40 4.874491
806.50 4.853238
806.60 4.835731
806.70 4.821487
806.80 4.790368
806.90 4.760745
807.00 4.741231
807.10 4.708594
807.20 4.713038
807.30 4.770775
807.40 4.817405
807.50 4.852202
807.60 4.873465
807.70 4.867034
807.80 4.868052
807.90 4.902025
808.00 4.917444
808.10 4.883313
808.20 4.859176
808.30 4.863085
808.40 4.871107
808.50 4.889853
808.60 4.88624
808.70 4.843911
808.80 4.836878
808.90 4.863147
809.00 4.881619
809.10 4.907042
809.20 4.902017
809.30 4.874702
809.40 4.880177
809.50 4.903061
809.60 4.917666
809.70 4.907789
809.80 4.869569
809.90 4.835107
810.00 4.84206
810.10 4.883176
810.20 4.911757
810.30 4.926565
810.40 4.9523
810.50 4.967537
810.60 4.968438
810.70 4.9542
810.80 4.90399
810.90 4.863227
811.00 4.868397
811.10 4.893175
811.20 4.913732
811.30 4.907598
811.40 4.876646
811.50 4.854791
811.60 4.853931
811.70 4.840582
811.80 4.793344
811.90 4.766083
812.00 4.80861
812.10 4.883251
812.20 4.94562
812.30 4.967419
812.40 4.944647
812.50 4.949081
812.60 4.989653
812.70 4.991779
812.80 4.958502
812.90 4.953309
813.00 4.984413
813.10 4.992529
813.20 4.958795
813.30 4.912717
813.40 4.872485
813.50 4.871993
813.60 4.914567
813.70 4.954511
813.80 4.97441
813.90 4.980902
814.00 4.962817
814.10 4.939
814.20 4.96039
814.30 4.999658
814.40 5.001231
814.50 4.954177
814.60 4.876579
814.70 4.830735
814.80 4.837082
814.90 4.864437
815.00 4.875304
815.10 4.855181
815.20 4.860541
815.30 4.908165
815.40 4.949572
815.50 4.965654
815.60 4.952513
815.70 4.915696
815.80 4.892645
815.90 4.899377
816.00 4.899721
816.10 4.884018
816.20 4.861213
816.30 4.805061
816.40 4.748291
816.50 4.745202
816.60 4.786612
816.70 4.864204
816.80 4.949259
816.90 4.995387
817.00 4.979409
817.10 4.923541
817.20 4.896167
817.30 4.918715
817.40 4.94446
817.50 4.941654
817.60 4.932177
817.70 4.905858
817.80 4.844854
817.90 4.813786
818.00 4.826542
818.10 4.815587
818.20 4.71796
818.30 4.42172
818.40 3.981916
818.50 3.695928
818.60 3.704923
818.70 3.99176
818.80 4.413624
818.90 4.696946
819.00 4.78573
819.10 4.780224
819.20 4.715868
819.30 4.623939
819.40 4.429771
819.50 4.025741
819.60 3.618856
819.70 3.478014
819.80 3.614168
819.90 3.947738
820.00 4.306281
820.10 4.527855
820.20 4.653058
820.30 4.762101
820.40 4.837819
820.50 4.850572
820.60 4.806255
820.70 4.741419
820.80 4.720332
820.90 4.750965
821.00 4.794989
821.10 4.838911
821.20 4.867585
821.30 4.850287
821.40 4.784473
821.50 4.733895
821.60 4.757622
821.70 4.810485
821.80 4.843622
821.90 4.866773
822.00 4.847443
822.10 4.790344
822.20 4.770278
822.30 4.77934
822.40 4.793513
822.50 4.830538
822.60 4.853927
822.70 4.857603
822.80 4.881433
822.90 4.911013
823.00 4.936395
823.10 4.962588
823.20 4.957243
823.30 4.918298
823.40 4.867135
823.50 4.814327
823.60 4.808199
823.70 4.850373
823.80 4.902506
823.90 4.976337
824.00 5.022266
824.10 5.003391
824.20 4.992414
824.30 4.978509
824.40 4.924554
824.50 4.907304
824.60 4.936382
824.70 4.972354
824.80 5.033656
824.90 5.113247
825.00 5.201624
825.10 5.251804
825.20 5.192542
825.30 5.081132
825.40 5.011993
825.50 4.972901
825.60 4.931143
825.70 4.885006
825.80 4.829128
825.90 4.798196
826.00 4.850264
826.10 4.939511
826.20 4.988319
826.30 5.033378
826.40 5.100415
826.50 5.139902
826.60 5.156832
826.70 5.169064
826.80 5.16527
826.90 5.155608
827.00 5.142241
827.10 5.117063
827.20 5.06392
827.30 4.976092
827.40 4.896102
827.50 4.839694
827.60 4.76913
827.70 4.718361
827.80 4.763666
827.90 4.876609
828.00 4.988926
828.10 5.047895
828.20 4.986015
828.30 4.85688
828.40 4.796635
828.50 4.819929
828.60 4.836666
828.70 4.81894
828.80 4.839436
828.90 4.893245
829.00 4.889347
829.10 4.830347
829.20 4.776052
829.30 4.776944
829.40 4.818544
829.50 4.828825
829.60 4.83458
829.70 4.837774
829.80 4.827041
829.90 4.896328
830.00 4.924117
830.10 4.878087
830.20 4.832057
830.30 4.786031
830.40 4.740005
830.50 4.743426
830.60 4.746848
830.70 4.723515
830.80 4.700182
830.90 4.730561
831.00 4.760939
831.10 4.829177
831.20 4.897415
831.30 4.870022
831.40 4.842629
831.50 4.816453
831.60 4.790277
831.70 4.808824
831.80 4.82737
831.90 4.821385
832.00 4.815399
832.10 4.779188
832.20 4.742977
832.30 4.757397
832.40 4.771817
832.50 4.768423
832.60 4.765029
832.70 4.698035
832.80 4.631041
832.90 4.603462
833.00 4.575883
833.10 4.638454
833.20 4.701024
833.30 4.745783
833.40 4.790541
833.50 4.767719
833.60 4.744896
833.70 4.752733
833.80 4.76057
833.90 4.7748
834.00 4.78903
834.10 4.824872
834.20 4.860713
834.30 4.918097
834.40 4.97548
834.50 4.993502
834.60 5.011523
834.70 4.870391
834.80 4.729258
834.90 4.662694
835.00 4.596129
835.10 4.713879
835.20 4.831629
835.30 4.805989
835.40 4.780349
835.50 4.752318
835.60 4.724287
835.70 4.722445
835.80 4.720603
835.90 4.768394
836.00 4.816186
836.10 4.801557
836.20 4.786928
836.30 4.74685
836.40 4.706771
836.50 4.686913
836.60 4.667054
836.70 4.684029
836.80 4.701004
836.90 4.739681
837.00 4.778358
837.10 4.822475
837.20 4.866592
837.30 4.856568
837.40 4.846545
837.50 4.794276
837.60 4.742007
837.70 4.696866
837.80 4.651725
837.90 4.629946
838.00 4.608168
838.10 4.626765
838.20 4.645363
838.30 4.606931
838.40 4.568499
838.50 4.519268
838.60 4.470037
838.70 4.453262
838.80 4.436487
838.90 4.434316
839.00 4.432145
839.10 4.504552
839.20 4.576959
839.30 4.680379
839.40 4.7838
839.50 4.783409
839.60 4.783019
839.70 4.734608
839.80 4.686197
839.90 4.689525
840.00 4.692854
840.10 4.707611
840.20 4.740935
840.30 4.774719
840.40 4.787479
840.50 4.797769
840.60 4.800224
840.70 4.804318
840.80 4.810736
840.90 4.81356
841.00 4.806935
841.10 4.74917
841.20 4.690028
841.30 4.650162
841.40 4.607713
841.50 4.594737
841.60 4.643168
841.70 4.687208
841.80 4.707394
841.90 4.728383
842.00 4.740921
842.10 4.744733
842.20 4.736146
842.30 4.72306
842.40 4.699135
842.50 4.643647
842.60 4.590455
842.70 4.556959
842.80 4.514646
842.90 4.515403
843.00 4.575068
843.10 4.623614
843.20 4.638972
843.30 4.660921
843.40 4.516319
843.50 4.34123
843.60 4.229595
843.70 4.162014
843.80 4.114816
843.90 4.268175
844.00 4.424892
844.10 4.517243
844.20 4.598075
844.30 4.653778
844.40 4.665386
844.50 4.675847
844.60 4.680463
844.70 4.68249
844.80 4.6701
844.90 4.663674
845.00 4.66199
845.10 4.656272
845.20 4.655991
845.30 4.654132
845.40 4.648897
845.50 4.648459
845.60 4.648112
845.70 4.634074
845.80 4.620257
845.90 4.611895
846.00 4.606158
846.10 4.600674
846.20 4.605671
846.30 4.613198
846.40 4.606936
846.50 4.591298
846.60 4.561809
846.70 4.504868
846.80 4.451503
846.90 4.405845
847.00 4.357263
847.10 4.377254
847.20 4.432818
847.30 4.478744
847.40 4.51032
847.50 4.540771
847.60 4.552251
847.70 4.563214
847.80 4.56672
847.90 4.570077
848.00 4.572314
848.10 4.567092
848.20 4.562825
848.30 4.558427
848.40 4.553387
848.50 4.561343
848.60 4.57535
848.70 4.587131
848.80 4.590555
848.90 4.594795
849.00 4.607775
849.10 4.622099
849.20 4.612586
849.30 4.596443
849.40 4.568862
849.50 4.522555
849.60 4.4614
849.70 4.309807
849.80 4.155144
849.90 4.097611
850.00 4.043477
850.10 4.089305
850.20 4.254134
850.30 4.393689
850.40 4.466659
850.50 4.545674
850.60 4.558894
850.70 4.557757
850.80 4.55055
850.90 4.551092
851.00 4.547398
851.10 4.549641
851.20 4.555207
851.30 4.507762
851.40 4.448846
851.50 4.403169
851.60 4.356057
851.70 4.318476
851.80 4.329182
851.90 4.338321
852.00 4.371001
852.10 4.406592
852.20 4.439217
852.30 4.476616
852.40 4.506831
852.50 4.516594
852.60 4.528544
852.70 4.523453
852.80 4.515299
852.90 4.521309
853.00 4.530781
853.10 4.533323
853.20 4.518601
853.30 4.504002
853.40 4.498549
853.50 4.496504
853.60 4.480746
853.70 4.46005
853.80 4.40538
853.90 4.282432
854.00 4.152042
854.10 3.915177
854.20 3.672465
854.30 3.552237
854.40 3.451254
854.50 3.4537
854.60 3.682312
854.70 3.893516
854.80 4.060155
854.90 4.228563
855.00 4.316663
855.10 4.381912
855.20 4.4385
855.30 4.4753
855.40 4.509932
855.50 4.519803
855.60 4.527571
855.70 4.539858
855.80 4.553072
855.90 4.561519
856.00 4.553809
856.10 4.54489
856.20 4.539227
856.30 4.53222
856.40 4.539667
856.50 4.558209
856.60 4.569036
856.70 4.574981
856.80 4.583875
856.90 4.583033
857.00 4.579648
857.10 4.574275
857.20 4.568173
857.30 4.568473
857.40 4.571758
857.50 4.572092
857.60 4.575855
857.70 4.580373
857.80 4.581751
857.90 4.5823
858.00 4.5808
858.10 4.577658
858.20 4.576681
858.30 4.566777
858.40 4.556128
858.50 4.563457
858.60 4.573316
858.70 4.589375
858.80 4.610582
858.90 4.627645
859.00 4.627505
859.10 4.628341
859.20 4.622393
859.30 4.616306
859.40 4.611759
859.50 4.608907
859.60 4.601125
859.70 4.595699
859.80 4.593059
859.90 4.593493
860.00 4.590977
860.10 4.590798
860.20 4.596021
860.30 4.603717
860.40 4.612074
860.50 4.617899
860.60 4.617377
860.70 4.618339
860.80 4.626331
860.90 4.631882
861.00 4.619027
861.10 4.585795
861.20 4.55831
861.30 4.543451
861.40 4.525845
861.50 4.533905
861.60 4.556128
861.70 4.577917
861.80 4.589684
861.90 4.594507
862.00 4.58933
862.10 4.588467
862.20 4.582234
862.30 4.569294
862.40 4.567215
862.50 4.570928
862.60 4.571965
862.70 4.581455
862.80 4.593179
862.90 4.595528
863.00 4.593893
863.10 4.593018
863.20 4.590059
863.30 4.586908
863.40 4.581156
863.50 4.57684
863.60 4.579429
863.70 4.583787
863.80 4.59068
863.90 4.600226
864.00 4.607628
864.10 4.610362
864.20 4.613161
864.30 4.624576
864.40 4.63789
864.50 4.644676
864.60 4.641259
864.70 4.638455
864.80 4.630785
864.90 4.623225
865.00 4.629534
865.10 4.638336
865.20 4.633816
865.30 4.624671
865.40 4.617136
865.50 4.607053
865.60 4.592983
865.70 4.551827
865.80 4.51358
865.90 4.404302
866.00 4.269725
866.10 4.109531
866.20 3.873164
866.30 3.665613
866.40 3.656989
866.50 3.644546
866.60 3.809141
866.70 4.055739
866.80 4.260865
866.90 4.394982
867.00 4.52129
867.10 4.556719
867.20 4.589478
867.30 4.573369
867.40 4.549194
867.50 4.52375
867.60 4.478535
867.70 4.445345
867.80 4.484412
867.90 4.523549
868.00 4.552518
868.10 4.589587
868.20 4.607209
868.30 4.582866
868.40 4.558278
868.50 4.543487
868.60 4.531124
868.70 4.462544
868.80 4.390182
868.90 4.329752
869.00 4.252706
869.10 4.1978
869.20 4.261092
869.30 4.319311
869.40 4.375606
869.50 4.434368
869.60 4.466851
869.70 4.48275
869.80 4.494344
869.90 4.502842
870.00 4.513462
870.10 4.523116
870.20 4.531733
870.30 4.538913
870.40 4.548119
870.50 4.559001
870.60 4.571165
870.70 4.582562
870.80 4.578443
870.90 4.573062
871.00 4.561715
871.10 4.544689
871.20 4.531171
871.30 4.524364
871.40 4.515406
871.50 4.522062
871.60 4.531896
871.70 4.534998
871.80 4.530352
871.90 4.531943
872.00 4.548148
872.10 4.561253
872.20 4.576076
872.30 4.591065
872.40 4.604
872.50 4.612602
872.60 4.624196
872.70 4.642475
872.80 4.655449
872.90 4.658492
873.00 4.665267
873.10 4.660589
873.20 4.646359
873.30 4.630964
873.40 4.611453
873.50 4.589334
873.60 4.5766
873.70 4.563505
873.80 4.575393
873.90 4.589138
874.00 4.603557
874.10 4.625214
874.20 4.646028
874.30 4.667771
874.40 4.68819
874.50 4.687264
874.60 4.6843
874.70 4.68039
874.80 4.670772
874.90 4.665408
875.00 4.658142
875.10 4.647923
875.20 4.657345
875.30 4.672411
875.40 4.673883
875.50 4.671953
875.60 4.670011
875.70 4.643324
875.80 4.616388
875.90 4.620413
876.00 4.628575
876.10 4.642796
876.20 4.658357
876.30 4.66694
876.40 4.654566
876.50 4.646355
876.60 4.626783
876.70 4.60061
876.80 4.595383
876.90 4.605584
877.00 4.614956
877.10 4.638212
877.20 4.654511
877.30 4.623229
877.40 4.591681
877.50 4.591887
877.60 4.590164
877.70 4.604198
877.80 4.636705
877.90 4.670615
878.00 4.662627
878.10 4.649393
878.20 4.652618
878.30 4.663028
878.40 4.664601
878.50 4.669139
878.60 4.67543
878.70 4.675446
878.80 4.675855
878.90 4.6838
879.00 4.692032
879.10 4.687871
879.20 4.680642
879.30 4.67416
879.40 4.659063
879.50 4.643962
879.60 4.652723
879.70 4.663951
879.80 4.675904
879.90 4.688196
880.00 4.691242
880.10 4.659761
880.20 4.629845
880.30 4.587337
880.40 4.541536
880.50 4.459416
880.60 4.378275
880.70 4.320877
880.80 4.287211
880.90 4.260393
881.00 4.352633
881.10 4.448054
881.20 4.544011
881.30 4.648021
881.40 4.718637
881.50 4.731834
881.60 4.748274
881.70 4.75053
881.80 4.751509
881.90 4.747587
882.00 4.744496
882.10 4.724616
882.20 4.674497
882.30 4.625485
882.40 4.543265
882.50 4.456158
882.60 4.446881
882.70 4.447786
882.80 4.484526
882.90 4.57934
883.00 4.661796
883.10 4.691216
883.20 4.724614
883.30 4.736785
883.40 4.74772
883.50 4.754809
883.60 4.75097
883.70 4.741349
883.80 4.723576
883.90 4.706538
884.00 4.697797
884.10 4.685937
884.20 4.687605
884.30 4.702287
884.40 4.716236
884.50 4.708444
884.60 4.699608
884.70 4.684217
884.80 4.669673
884.90 4.673371
885.00 4.682473
885.10 4.684057
885.20 4.698186
885.30 4.710086
885.40 4.729404
885.50 4.755087
885.60 4.763931
885.70 4.758222
885.80 4.749195
885.90 4.716035
886.00 4.687586
886.10 4.652722
886.20 4.612113
886.30 4.595419
886.40 4.59184
886.50 4.578191
886.60 4.582002
886.70 4.588457
886.80 4.574325
886.90 4.56561
887.00 4.550084
887.10 4.528531
887.20 4.523045
887.30 4.527207
887.40 4.519042
887.50 4.523833
887.60 4.528406
887.70 4.544094
887.80 4.563204
887.90 4.578185
888.00 4.596125
888.10 4.62058
888.20 4.630573
888.30 4.641199
888.40 4.628215
888.50 4.610618
888.60 4.60441
888.70 4.601548
888.80 4.592667
888.90 4.59566
889.00 4.599113
889.10 4.61187
889.20 4.628219
889.30 4.630234
889.40 4.621817
889.50 4.617442
889.60 4.604996
889.70 4.590767
889.80 4.57871
889.90 4.564422
890.00 4.5711
890.10 4.590245
890.20 4.606373
890.30 4.626775
890.40 4.647682
890.50 4.652796
890.60 4.658854
890.70 4.66065
890.80 4.661469
890.90 4.666164
891.00 4.663034
891.10 4.6555
891.20 4.631145
891.30 4.603664
891.40 4.607167
891.50 4.620181
891.60 4.627934
891.70 4.633101
891.80 4.639074
891.90 4.641245
892.00 4.643678
892.10 4.636073
892.20 4.627508
892.30 4.627084
892.40 4.6243
892.50 4.619846
892.60 4.620576
892.70 4.621944
892.80 4.617711
892.90 4.612034
893.00 4.607369
893.10 4.608447
893.20 4.613873
893.30 4.628509
893.40 4.644673
893.50 4.656039
893.60 4.670204
893.70 4.668246
893.80 4.654471
893.90 4.643926
894.00 4.631254
894.10 4.612568
894.20 4.601775
894.30 4.590871
894.40 4.576346
894.50 4.565713
894.60 4.561146
894.70 4.552756
894.80 4.544459
894.90 4.554407
895.00 4.565529
895.10 4.583495
895.20 4.602574
895.30 4.615896
895.40 4.625404
895.50 4.634995
895.60 4.647301
895.70 4.659495
895.80 4.660511
895.90 4.6595
896.00 4.647186
896.10 4.62513
896.20 4.615353
896.30 4.629973
896.40 4.642792
896.50 4.633963
896.60 4.625406
896.70 4.623186
896.80 4.623765
896.90 4.620679
897.00 4.619685
897.10 4.61893
897.20 4.624391
897.30 4.631321
897.40 4.622455
897.50 4.607418
897.60 4.592172
897.70 4.582812
897.80 4.577784
897.90 4.587026
898.00 4.595257
898.10 4.613445
898.20 4.634511
898.30 4.640772
898.40 4.640268
898.50 4.638614
898.60 4.656255
898.70 4.678375
898.80 4.678776
898.90 4.67223
899.00 4.662144
899.10 4.645928
899.20 4.630476
899.30 4.632231
899.40 4.633436
899.50 4.644278
899.60 4.655446
899.70 4.644267
899.80 4.620942
899.90 4.597162
900.00 4.555825
900.10 4.511802
900.20 4.524984
900.30 4.541913
900.40 4.584557
900.50 4.646888
900.60 4.688975
900.70 4.681082
900.80 4.67779
900.90 4.638553
901.00 4.598043
901.10 4.570055
901.20 4.540335
901.30 4.526045
901.40 4.548965
901.50 4.56847
901.60 4.567935
901.70 4.571724
901.80 4.562633
901.90 4.542577
902.00 4.527017
902.10 4.520134
902.20 4.51575
902.30 4.524059
902.40 4.53118
902.50 4.541528
902.60 4.549245
902.70 4.54419
902.80 4.530697
902.90 4.5238
903.00 4.5416
903.10 4.557209
903.20 4.593498
903.30 4.632923
903.40 4.653176
903.50 4.657513
903.60 4.66065
903.70 4.662447
903.80 4.665927
903.90 4.67059
904.00 4.675993
904.10 4.68691
904.20 4.699741
904.30 4.704569
904.40 4.683845
904.50 4.658587
904.60 4.643234
904.70 4.630647
904.80 4.634547
904.90 4.642117
905.00 4.645602
905.10 4.642592
905.20 4.646322
905.30 4.644637
905.40 4.64079
905.50 4.638789
905.60 4.639339
905.70 4.643166
905.80 4.652335
905.90 4.659115
906.00 4.658094
906.10 4.65601
906.20 4.642303
906.30 4.627301
906.40 4.621711
906.50 4.623816
906.60 4.625308
906.70 4.628192
906.80 4.630515
906.90 4.647166
907.00 4.663858
907.10 4.682033
907.20 4.700326
907.30 4.702618
907.40 4.684147
907.50 4.668748
907.60 4.666835
907.70 4.665078
907.80 4.670877
907.90 4.683567
908.00 4.696768
908.10 4.703884
908.20 4.711856
908.30 4.697737
908.40 4.68083
908.50 4.660271
908.60 4.641674
908.70 4.616672
908.80 4.580843
908.90 4.544705
909.00 4.493413
909.10 4.437893
909.20 4.457669
909.30 4.492327
909.40 4.536322
909.50 4.593948
909.60 4.645064
909.70 4.66299
909.80 4.682987
909.90 4.68099
910.00 4.67716
910.10 4.682968
910.20 4.695402
910.30 4.704555
910.40 4.695331
910.50 4.687436
910.60 4.673949
910.70 4.657859
910.80 4.653154
910.90 4.653935
911.00 4.649919
911.10 4.653881
911.20 4.658463
911.30 4.659596
911.40 4.662311
911.50 4.661726
911.60 4.656023
911.70 4.647592
911.80 4.632458
911.90 4.618082
912.00 4.613979
912.10 4.608525
912.20 4.610142
912.30 4.615387
912.40 4.629939
912.50 4.648369
912.60 4.665063
912.70 4.664258
912.80 4.66389
912.90 4.664684
913.00 4.668133
913.10 4.672219
913.20 4.677439
913.30 4.680845
913.40 4.688565
913.50 4.697988
913.60 4.695368
913.70 4.690933
913.80 4.679309
913.90 4.656029
914.00 4.63096
914.10 4.606652
914.20 4.578379
914.30 4.598939
914.40 4.6208
914.50 4.62473
914.60 4.625231
914.70 4.628549
914.80 4.620225
914.90 4.614203
915.00 4.618695
915.10 4.620782
915.20 4.623376
915.30 4.628201
915.40 4.634392
915.50 4.650137
915.60 4.664598
915.70 4.668626
915.80 4.675485
915.90 4.668031
916.00 4.652565
916.10 4.648654
916.20 4.651198
916.30 4.652736
916.40 4.64891
916.50 4.642371
916.60 4.63784
916.70 4.636659
916.80 4.64292
916.90 4.650411
917.00 4.654501
917.10 4.646561
917.20 4.638845
917.30 4.64284
917.40 4.646682
917.50 4.650921
917.60 4.652451
917.70 4.655161
917.80 4.668051
917.90 4.680187
918.00 4.671298
918.10 4.662275
918.20 4.66253
918.30 4.665147
918.40 4.66697
918.50 4.66393
918.60 4.659827
918.70 4.65245
918.80 4.64481
918.90 4.654692
919.00 4.673484
919.10 4.680523
919.20 4.671778
919.30 4.669833
919.40 4.659244
919.50 4.646782
919.60 4.653045
919.70 4.663089
919.80 4.666279
919.90 4.670938
920.00 4.676507
920.10 4.674069
920.20 4.671472
920.30 4.679265
920.40 4.68885
920.50 4.698052
920.60 4.704039
920.70 4.702613
920.80 4.674421
920.90 4.649172
921.00 4.624698
921.10 4.595943
921.20 4.592597
921.30 4.608853
921.40 4.624617
921.50 4.642374
921.60 4.661458
921.70 4.666334
921.80 4.672202
921.90 4.668124
922.00 4.658009
922.10 4.65619
922.20 4.661955
922.30 4.66503
922.40 4.662083
922.50 4.65886
922.60 4.645336
922.70 4.630022
922.80 4.613157
922.90 4.598574
923.00 4.581308
923.10 4.544232
923.20 4.507905
923.30 4.50579
923.40 4.504388
923.50 4.515434
923.60 4.541663
923.70 4.565669
923.80 4.588493
923.90 4.612749
924.00 4.607578
924.10 4.599458
924.20 4.602387
924.30 4.616323
924.40 4.624303
924.50 4.617369
924.60 4.618122
924.70 4.616452
924.80 4.613381
924.90 4.6124
925.00 4.610904
925.10 4.61303
925.20 4.622794
925.30 4.629044
925.40 4.626252
925.50 4.623242
925.60 4.599336
925.70 4.575101
925.80 4.564301
925.90 4.563926
926.00 4.570007
926.10 4.572037
926.20 4.570768
926.30 4.565749
926.40 4.559549
926.50 4.56044
926.60 4.571512
926.70 4.586442
926.80 4.609006
926.90 4.633504
927.00 4.639733
927.10 4.644976
927.20 4.652279
927.30 4.661792
927.40 4.663759
927.50 4.645562
927.60 4.626726
927.70 4.611171
927.80 4.595987
927.90 4.589389
928.00 4.585226
928.10 4.578156
928.20 4.575195
928.30 4.568733
928.40 4.567149
928.50 4.568146
928.60 4.576783
928.70 4.585764
928.80 4.582743
928.90 4.563099
929.00 4.541137
929.10 4.515561
929.20 4.489562
929.30 4.490486
929.40 4.49579
929.50 4.510151
929.60 4.532374
929.70 4.551736
929.80 4.558752
929.90 4.56988
930.00 4.567013
930.10 4.562144
930.20 4.560177
930.30 4.562096
930.40 4.563083
930.50 4.566933
930.60 4.571046
930.70 4.565006
930.80 4.560851
930.90 4.571
931.00 4.584351
931.10 4.574855
931.20 4.559635
931.30 4.545518
931.40 4.554215
931.50 4.562204
931.60 4.58144
931.70 4.607169
931.80 4.618665
931.90 4.580959
932.00 4.548259
932.10 4.542539
932.20 4.538308
932.30 4.540161
932.40 4.565357
932.50 4.606599
932.60 4.636866
932.70 4.625437
932.80 4.589807
932.90 4.555044
933.00 4.54123
933.10 4.533104
933.20 4.535842
933.30 4.566414
933.40 4.587769
933.50 4.585314
933.60 4.572853
933.70 4.567318
933.80 4.546857
933.90 4.546535
934.00 4.558681
934.10 4.581546
934.20 4.586267
934.30 4.594609
934.40 4.61076
934.50 4.620868
934.60 4.583295
934.70 4.532207
934.80 4.506552
934.90 4.486583
935.00 4.468964
935.10 4.459176
935.20 4.512165
935.30 4.556267
935.40 4.580988
935.50 4.586423
935.60 4.588721
935.70 4.557491
935.80 4.519128
935.90 4.483479
936.00 4.470237
936.10 4.460753
936.20 4.456318
936.30 4.460236
936.40 4.463642
936.50 4.501191
936.60 4.547138
936.70 4.587867
936.80 4.571404
936.90 4.55149
937.00 4.538119
937.10 4.534539
937.20 4.531052
937.30 4.504353
937.40 4.471614
937.50 4.443939
937.60 4.468029
937.70 4.491832
937.80 4.512379
937.90 4.547561
938.00 4.577972
938.10 4.585624
938.20 4.560289
938.30 4.535446
938.40 4.515232
938.50 4.496356
938.60 4.479683
938.70 4.511728
938.80 4.544109
938.90 4.559027
939.00 4.533074
939.10 4.509343
939.20 4.505706
939.30 4.513043
939.40 4.521024
939.50 4.525457
939.60 4.530691
939.70 4.536863
939.80 4.531117
939.90 4.526242
940.00 4.523124
940.10 4.525815
940.20 4.529765
940.30 4.518908
940.40 4.50358
940.50 4.489785
940.60 4.493955
940.70 4.499216
940.80 4.507947
940.90 4.525486
941.00 4.54081
941.10 4.546593
941.20 4.543247
941.30 4.539235
941.40 4.512656
941.50 4.481181
941.60 4.453354
941.70 4.471446
941.80 4.486225
941.90 4.497127
942.00 4.50465
942.10 4.512367
942.20 4.517518
942.30 4.519026
942.40 4.521767
942.50 4.530942
942.60 4.541911
942.70 4.555317
942.80 4.579391
942.90 4.598786
943.00 4.583804
943.10 4.540614
943.20 4.500871
943.30 4.492548
943.40 4.489894
943.50 4.485787
943.60 4.52036
943.70 4.549257
943.80 4.569223
943.90 4.569677
944.00 4.568516
944.10 4.561148
944.20 4.548132
944.30 4.534466
944.40 4.496957
944.50 4.460159
944.60 4.428288
944.70 4.419528
944.80 4.413425
944.90 4.426276
945.00 4.458988
945.10 4.490302
945.20 4.507215
945.30 4.519729
945.40 4.531981
945.50 4.537502
945.60 4.54073
945.70 4.536162
945.80 4.518873
945.90 4.501206
946.00 4.503402
946.10 4.512718
946.20 4.519622
946.30 4.503847
946.40 4.491639
946.50 4.487506
946.60 4.484496
946.70 4.480872
946.80 4.493034
946.90 4.529546
947.00 4.563957
947.10 4.552712
947.20 4.529997
947.30 4.511884
947.40 4.508253
947.50 4.503385
947.60 4.50054
947.70 4.507944
947.80 4.516213
947.90 4.522497
948.00 4.525552
948.10 4.528477
948.20 4.546994
948.30 4.562687
948.40 4.564879
948.50 4.509625
948.60 4.460924
948.70 4.451944
948.80 4.478993
948.90 4.503852
949.00 4.515585
949.10 4.529332
949.20 4.546561
949.30 4.550184
949.40 4.552385
949.50 4.546576
949.60 4.532984
949.70 4.51756
949.80 4.508792
949.90 4.500479
950.00 4.494927
950.10 4.519959
950.20 4.545227
950.30 4.553152
950.40 4.511815
950.50 4.473312
950.60 4.460444
950.70 4.46706
950.80 4.474131
950.90 4.486094
951.00 4.50395
951.10 4.523534
951.20 4.520122
951.30 4.5169
951.40 4.514667
951.50 4.514129
951.60 4.511443
951.70 4.518869
951.80 4.530723
951.90 4.541801
952.00 4.532135
952.10 4.522453
952.20 4.515876
952.30 4.518572
952.40 4.521456
952.50 4.518429
952.60 4.513957
952.70 4.511215
952.80 4.522541
952.90 4.532256
953.00 4.537025
953.10 4.53845
953.20 4.539344
953.30 4.537847
953.40 4.524543
953.50 4.511927
953.60 4.509261
953.70 4.513897
953.80 4.517911
953.90 4.513401
954.00 4.508048
954.10 4.501871
954.20 4.497698
954.30 4.493805
954.40 4.479453
954.50 4.456368
954.60 4.432626
954.70 4.382807
954.80 4.32714
954.90 4.282944
955.00 4.331174
955.10 4.379871
955.20 4.430891
955.30 4.485135
955.40 4.538197
955.50 4.550421
955.60 4.543575
955.70 4.536858
955.80 4.528372
955.90 4.520822
956.00 4.51219
956.10 4.500457
956.20 4.487783
956.30 4.494312
956.40 4.518336
956.50 4.541114
956.60 4.549492
956.70 4.554414
956.80 4.558117
956.90 4.529928
957.00 4.506286
957.10 4.48685
957.20 4.473958
957.30 4.460689
957.40 4.442135
957.50 4.423329
957.60 4.406684
957.70 4.425642
957.80 4.447488
957.90 4.469802
958.00 4.494711
958.10 4.518709
958.20 4.520404
958.30 4.505854
958.40 4.491973
958.50 4.47836
958.60 4.465232
958.70 4.455865
958.80 4.477999
958.90 4.496878
959.00 4.509098
959.10 4.509484
959.20 4.508929
959.30 4.496421
959.40 4.480343
959.50 4.466519
959.60 4.452706
959.70 4.438084
959.80 4.413996
959.90 4.372422
960.00 4.329312
960.10 4.305784
960.20 4.306452
960.30 4.31067
960.40 4.361482
960.50 4.413105
960.60 4.459868
960.70 4.478454
960.80 4.494886
960.90 4.505204
961.00 4.501615
961.10 4.498001
961.20 4.497746
961.30 4.499975
961.40 4.500832
961.50 4.500053
961.60 4.50119
961.70 4.499937
961.80 4.497758
961.90 4.498058
962.00 4.499641
962.10 4.498869
962.20 4.497251
962.30 4.496794
962.40 4.496787
962.50 4.497699
962.60 4.493689
962.70 4.490398
962.80 4.489959
962.90 4.493817
963.00 4.496778
963.10 4.496502
963.20 4.495225
963.30 4.493173
963.40 4.477039
963.50 4.460591
963.60 4.430135
963.70 4.359165
963.80 4.282823
963.90 4.207875
964.00 4.145455
964.10 4.088181
964.20 4.145863
964.30 4.223749
964.40 4.300275
964.50 4.342489
964.60 4.378379
964.70 4.371006
964.80 4.324247
964.90 4.277062
965.00 4.277166
965.10 4.291372
965.20 4.30949
965.30 4.350614
965.40 4.391936
965.50 4.420975
965.60 4.433901
965.70 4.446099
965.80 4.447514
965.90 4.440903
966.00 4.434229
966.10 4.436274
966.20 4.439596
966.30 4.444077
966.40 4.445193
966.50 4.443903
966.60 4.437431
966.70 4.4264
966.80 4.415482
966.90 4.4092
967.00 4.405611
967.10 4.401387
967.20 4.379989
967.30 4.356739
967.40 4.313877
967.50 4.238228
967.60 4.160893
967.70 4.137457
967.80 4.14852
967.90 4.167063
968.00 4.250021
968.10 4.339549
968.20 4.411646
968.30 4.429993
968.40 4.444323
968.50 4.443363
968.60 4.427562
968.70 4.411232
968.80 4.374584
968.90 4.336256
969.00 4.299614
969.10 4.300162
969.20 4.306462
969.30 4.332984
969.40 4.380616
969.50 4.427986
969.60 4.446978
969.70 4.45426
969.80 4.459559
969.90 4.454511
970.00 4.446473
970.10 4.436971
970.20 4.419139
970.30 4.400063
970.40 4.352913
970.50 4.284475
970.60 4.214882
970.70 4.187631
970.80 4.172681
970.90 4.175732
971.00 4.257306
971.10 4.344225
971.20 4.399921
971.30 4.416039
971.40 4.430904
971.50 4.43952
971.60 4.444171
971.70 4.445518
971.80 4.424122
971.90 4.400069
972.00 4.383105
972.10 4.382131
972.20 4.382008
972.30 4.396021
972.40 4.416566
972.50 4.435691
972.60 4.403689
972.70 4.360851
972.80 4.311541
972.90 4.254445
973.00 4.198556
973.10 4.18888
973.20 4.225969
973.30 4.265066
973.40 4.30266
973.50 4.336622
973.60 4.365544
973.70 4.372495
973.80 4.377538
973.90 4.378388
974.00 4.366079
974.10 4.355165
974.20 4.328283
974.30 4.289391
974.40 4.248086
974.50 4.227003
974.60 4.212067
974.70 4.213837
974.80 4.258602
974.90 4.304951
975.00 4.343811
975.10 4.376175
975.20 4.408535
975.30 4.417207
975.40 4.419498
975.50 4.421729
975.60 4.427271
975.70 4.432683
975.80 4.437071
975.90 4.441453
976.00 4.446892
976.10 4.440924
976.20 4.428807
976.30 4.416098
976.40 4.414086
976.50 4.416164
976.60 4.416531
976.70 4.407616
976.80 4.396654
976.90 4.368553
977.00 4.32744
977.10 4.285732
977.20 4.275884
977.30 4.276913
977.40 4.287395
977.50 4.329408
977.60 4.372449
977.70 4.39775
977.80 4.404253
977.90 4.410817
978.00 4.397191
978.10 4.371699
978.20 4.338455
978.30 4.26484
978.40 4.188647
978.50 4.126388
978.60 4.095668
978.70 4.067224
978.80 4.083787
978.90 4.128226
979.00 4.174962
979.10 4.231686
979.20 4.290271
979.30 4.347272
979.40 4.387717
979.50 4.427375
979.60 4.443343
979.70 4.439195
979.80 4.433638
979.90 4.43323
980.00 4.432783
980.10 4.432239
980.20 4.436854
980.30 4.440911
980.40 4.44554
980.50 4.446926
980.60 4.448146
980.70 4.444154
980.80 4.439588
980.90 4.43504
981.00 4.435163
981.10 4.437808
981.20 4.438079
981.30 4.431168
981.40 4.422555
981.50 4.417996
981.60 4.415368
981.70 4.411656
981.80 4.406718
981.90 4.404247
982.00 4.403273
982.10 4.405
982.20 4.40611
982.30 4.406597
982.40 4.407656
982.50 4.40917
982.60 4.410608
982.70 4.410245
982.80 4.410355
982.90 4.404838
983.00 4.398039
983.10 4.390571
983.20 4.382148
983.30 4.374417
983.40 4.37444
983.50 4.378292
983.60 4.38222
983.70 4.392922
983.80 4.405501
983.90 4.416028
984.00 4.42323
984.10 4.43285
984.20 4.436122
984.30 4.433639
984.40 4.431435
984.50 4.432022
984.60 4.432394
984.70 4.432439
984.80 4.42797
984.90 4.423037
985.00 4.415662
985.10 4.407629
985.20 4.399014
985.30 4.396849
985.40 4.398484
985.50 4.400487
985.60 4.403132
985.70 4.405802
985.80 4.409855
985.90 4.412599
986.00 4.41442
986.10 4.413005
986.20 4.409338
986.30 4.40591
986.40 4.41026
986.50 4.416096
986.60 4.421199
986.70 4.42439
986.80 4.426368
986.90 4.426463
987.00 4.423653
987.10 4.420392
987.20 4.421093
987.30 4.425958
987.40 4.430893
987.50 4.43622
987.60 4.440457
987.70 4.444435
987.80 4.44222
987.90 4.438051
988.00 4.432429
988.10 4.427672
988.20 4.422574
988.30 4.425286
988.40 4.432114
988.50 4.43898
988.60 4.44056
988.70 4.441863
988.80 4.436712
988.90 4.428613
989.00 4.420046
989.10 4.416097
989.20 4.410243
989.30 4.404832
989.40 4.393784
989.50 4.379413
989.60 4.36374
989.70 4.342325
989.80 4.317575
989.90 4.300113
990.00 4.289956
990.10 4.281178
990.20 4.275029
990.30 4.269345
990.40 4.255595
990.50 4.222492
990.60 4.187561
990.70 4.163909
990.80 4.150849
990.90 4.139148
991.00 4.145902
991.10 4.160757
991.20 4.173841
991.30 4.171938
991.40 4.166371
991.50 4.153497
991.60 4.135966
991.70 4.117878
991.80 4.114759
991.90 4.121998
992.00 4.133982
992.10 4.151643
992.20 4.166837
992.30 4.174994
992.40 4.166387
992.50 4.154759
992.60 4.146939
992.70 4.147275
992.80 4.149078
992.90 4.166496
993.00 4.189809
993.10 4.213036
993.20 4.225196
993.30 4.232933
993.40 4.231021
993.50 4.224092
993.60 4.215891
993.70 4.218494
993.80 4.229814
993.90 4.242746
994.00 4.254599
994.10 4.265656
994.20 4.271394
994.30 4.265479
994.40 4.256832
994.50 4.25575
994.60 4.258853
994.70 4.261213
994.80 4.267921
994.90 4.277127
995.00 4.282881
995.10 4.284074
995.20 4.285725
995.30 4.284103
995.40 4.281354
995.50 4.279648
995.60 4.272891
995.70 4.258733
995.80 4.245667
995.90 4.237145
996.00 4.230944
996.10 4.223549
996.20 4.223328
996.30 4.224025
996.40 4.231719
996.50 4.242086
996.60 4.256272
996.70 4.272135
996.80 4.281313
996.90 4.281273
997.00 4.262111
997.10 4.239158
997.20 4.219803
997.30 4.208248
997.40 4.1976
997.50 4.194547
997.60 4.199147
997.70 4.206431
997.80 4.21947
997.90 4.232083
998.00 4.240643
998.10 4.245968
998.20 4.250804
998.30 4.240793
998.40 4.22191
998.50 4.205382
998.60 4.200344
998.70 4.196108
998.80 4.195591
998.90 4.199027
999.00 4.204106
999.10 4.203495
999.20 4.204206
999.30 4.206218
999.40 4.214584
999.50 4.223044
999.60 4.225024
999.70 4.214416
999.80 4.202938
999.90 4.196939
1000.00 4.198547
1000.10 4.20118
1000.20 4.210834
1000.30 4.222066
1000.40 4.229917
1000.50 4.228101
1000.60 4.224093
1000.70 4.225554
1000.80 4.225027
1000.90 4.222611
1001.00 4.206526
1001.10 4.190845
1001.20 4.178651
1001.30 4.187012
1001.40 4.200515
1001.50 4.213805
1001.60 4.229297
1001.70 4.245943
1001.80 4.262677
1001.90 4.272901
1002.00 4.28049
1002.10 4.271253
1002.20 4.2612
1002.30 4.256164
1002.40 4.25876
1002.50 4.263188
1002.60 4.265303
1002.70 4.266737
1002.80 4.267916
1002.90 4.264655
1003.00 4.258146
1003.10 4.252737
1003.20 4.246212
1003.30 4.241405
1003.40 4.226929
1003.50 4.204686
1003.60 4.182546
1003.70 4.177332
1003.80 4.17936
1003.90 4.182986
1004.00 4.197484
1004.10 4.214245
1004.20 4.233294
1004.30 4.252718
1004.40 4.272561
1004.50 4.277279
1004.60 4.27626
1004.70 4.27544
1004.80 4.264416
1004.90 4.250353
1005.00 4.234727
1005.10 4.218628
1005.20 4.199905
1005.30 4.189567
1005.40 4.182935
1005.50 4.174956
1005.60 4.161246
1005.70 4.153427
1005.80 4.145229
1005.90 4.138739
1006.00 4.134116
1006.10 4.133416
1006.20 4.134003
1006.30 4.134983
1006.40 4.143881
1006.50 4.154743
1006.60 4.162611
1006.70 4.172763
1006.80 4.185676
1006.90 4.201297
1007.00 4.211942
1007.10 4.223165
1007.20 4.230315
1007.30 4.235048
1007.40 4.236927
1007.50 4.237081
1007.60 4.241326
1007.70 4.246357
1007.80 4.252222
1007.90 4.258471
1008.00 4.257949
1008.10 4.252015
1008.20 4.245389
1008.30 4.242441
1008.40 4.240825
1008.50 4.238931
1008.60 4.234169
1008.70 4.228983
1008.80 4.220215
1008.90 4.205919
1009.00 4.191296
1009.10 4.186492
1009.20 4.186749
1009.30 4.184841
1009.40 4.187695
1009.50 4.193663
1009.60 4.202513
1009.70 4.212179
1009.80 4.221942
1009.90 4.235641
1010.00 4.251518
1010.10 4.265245
1010.20 4.264859
1010.30 4.261496
1010.40 4.259704
1010.50 4.255323
1010.60 4.248733
1010.70 4.241882
1010.80 4.232221
1010.90 4.222735
1011.00 4.217495
1011.10 4.213173
1011.20 4.204233
1011.30 4.192542
1011.40 4.182188
1011.50 4.179002
1011.60 4.176626
1011.70 4.174208
1011.80 4.172244
1011.90 4.172317
1012.00 4.170941
1012.10 4.176878
1012.20 4.189119
1012.30 4.200403
1012.40 4.206904
1012.50 4.212223
1012.60 4.215638
1012.70 4.215848
1012.80 4.217339
1012.90 4.220861
1013.00 4.224625
1013.10 4.226635
1013.20 4.223368
1013.30 4.220288
1013.40 4.215858
1013.50 4.206478
1013.60 4.195222
1013.70 4.179353
1013.80 4.165666
1013.90 4.153642
1014.00 4.154715
1014.10 4.160027
1014.20 4.162007
1014.30 4.164987
1014.40 4.169465
1014.50 4.165369
1014.60 4.152623
1014.70 4.138621
1014.80 4.135556
1014.90 4.131648
1015.00 4.137127
1015.10 4.154729
1015.20 4.174452
1015.30 4.184583
1015.40 4.187933
1015.50 4.192382
1015.60 4.18674
1015.70 4.174734
1015.80 4.163663
1015.90 4.161499
1016.00 4.16092
1016.10 4.16528
1016.20 4.173199
1016.30 4.179327
1016.40 4.173571
1016.50 4.165751
1016.60 4.161597
1016.70 4.162217
1016.80 4.164194
1016.90 4.16479
1017.00 4.157573
1017.10 4.14936
1017.20 4.148199
1017.30 4.154382
1017.40 4.158636
1017.50 4.168262
1017.60 4.18259
1017.70 4.194824
1017.80 4.19005
1017.90 4.183118
1018.00 4.173738
1018.10 4.165811
1018.20 4.158214
1018.30 4.151037
1018.40 4.145326
1018.50 4.138756
1018.60 4.13797
1018.70 4.137296
1018.80 4.136228
1018.90 4.139753
1019.00 4.144164
1019.10 4.150238
1019.20 4.154255
1019.30 4.158169
1019.40 4.159683
1019.50 4.159485
1019.60 4.158052
1019.70 4.154894
1019.80 4.152421
1019.90 4.156305
1020.00 4.159787
1020.10 4.161425
1020.20 4.156591
1020.30 4.153146
1020.40 4.153992
1020.50 4.162325
1020.60 4.171303
1020.70 4.176028
1020.80 4.177849
1020.90 4.182248
1021.00 4.186758
1021.10 4.189268
1021.20 4.185648
1021.30 4.176685
1021.40 4.165883
1021.50 4.149418
1021.60 4.134761
1021.70 4.120775
1021.80 4.108285
1021.90 4.094569
1022.00 4.088591
1022.10 4.096642
1022.20 4.1055
1022.30 4.115695
1022.40 4.131175
1022.50 4.147133
1022.60 4.156638
1022.70 4.160587
1022.80 4.162497
1022.90 4.1624
1023.00 4.161235
1023.10 4.163354
1023.20 4.160087
1023.30 4.154925
1023.40 4.151081
1023.50 4.156228
1023.60 4.162859
1023.70 4.165282
1023.80 4.168177
1023.90 4.171907
1024.00 4.175896
1024.10 4.178554
1024.20 4.182582
1024.30 4.188179
1024.40 4.192774
1024.50 4.186394
1024.60 4.174374
1024.70 4.164346
1024.80 4.155166
1024.90 4.146723
1025.00 4.143657
1025.10 4.142574
1025.20 4.140657
1025.30 4.133313
1025.40 4.126844
1025.50 4.120295
1025.60 4.121166
1025.70 4.124715
1025.80 4.127553
1025.90 4.118904
1026.00 4.109071
1026.10 4.097909
1026.20 4.088653
1026.30 4.078417
1026.40 4.080812
1026.50 4.088482
1026.60 4.094736
1026.70 4.105231
1026.80 4.116794
1026.90 4.128228
1027.00 4.132981
1027.10 4.138492
1027.20 4.136645
1027.30 4.13132
1027.40 4.126668
1027.50 4.121155
1027.60 4.114585
1027.70 4.113517
1027.80 4.118953
1027.90 4.124461
1028.00 4.120958
1028.10 4.11341
1028.20 4.105293
1028.30 4.098931
1028.40 4.092176
1028.50 4.091443
1028.60 4.100525
1028.70 4.109231
1028.80 4.11563
1028.90 4.124046
1029.00 4.136625
1029.10 4.140391
1029.20 4.139558
1029.30 4.137676
1029.40 4.139272
1029.50 4.139895
1029.60 4.136257
1029.70 4.131113
1029.80 4.126418
1029.90 4.122787
1030.00 4.1173
1030.10 4.116294
1030.20 4.12071
1030.30 4.125907
1030.40 4.129526
1030.50 4.138689
1030.60 4.148177
1030.70 4.14927
1030.80 4.145309
1030.90 4.142449
1031.00 4.145394
1031.10 4.146977
1031.20 4.146689
1031.30 4.145627
1031.40 4.144425
1031.50 4.142843
1031.60 4.137732
1031.70 4.13448
1031.80 4.129309
1031.90 4.122585
1032.00 4.115881
1032.10 4.113302
1032.20 4.112282
1032.30 4.115542
1032.40 4.117397
1032.50 4.115249
1032.60 4.107251
1032.70 4.102372
1032.80 4.099002
1032.90 4.101439
1033.00 4.105649
1033.10 4.111938
1033.20 4.11522
1033.30 4.122295
1033.40 4.124999
1033.50 4.121229
1033.60 4.113462
1033.70 4.099142
1033.80 4.083361
1033.90 4.059979
1034.00 4.034534
1034.10 4.004904
1034.20 3.930193
1034.30 3.846418
1034.40 3.757301
1034.50 3.704838
1034.60 3.652277
1034.70 3.675613
1034.80 3.755115
1034.90 3.837874
1035.00 3.915629
1035.10 3.981355
1035.20 4.033835
1035.30 4.048084
1035.40 4.063171
1035.50 4.078713
1035.60 4.092108
1035.70 4.105814
1035.80 4.107902
1035.90 4.110662
1036.00 4.116535
1036.10 4.12563
1036.20 4.134707
1036.30 4.139948
1036.40 4.134105
1036.50 4.126792
1036.60 4.127504
1036.70 4.130892
1036.80 4.131517
1036.90 4.131811
1037.00 4.134443
1037.10 4.136603
1037.20 4.136632
1037.30 4.137941
1037.40 4.140541
1037.50 4.139365
1037.60 4.138839
1037.70 4.131998
1037.80 4.118584
1037.90 4.102702
1038.00 4.088267
1038.10 4.073871
1038.20 4.063366
1038.30 4.064196
1038.40 4.065506
1038.50 4.0762
1038.60 4.091396
1038.70 4.107063
1038.80 4.109267
1038.90 4.107182
1039.00 4.102727
1039.10 4.097861
1039.20 4.09262
1039.30 4.0799
1039.40 4.061519
1039.50 4.038957
1039.60 3.999039
1039.70 3.958961
1039.80 3.929753
1039.90 3.931776
1040.00 3.934665
1040.10 3.971253
1040.20 4.021291
1040.30 4.068674
1040.40 4.09031
1040.50 4.107561
1040.60 4.122053
1040.70 4.12657
1040.80 4.130108
1040.90 4.13357
1041.00 4.128835
1041.10 4.121846
1041.20 4.113448
1041.30 4.104917
1041.40 4.098265
1041.50 4.090831
1041.60 4.085797
1041.70 4.080647
1041.80 4.087603
1041.90 4.097407
1042.00 4.103674
1042.10 4.099862
1042.20 4.096876
1042.30 4.091883
1042.40 4.083404
1042.50 4.074531
1042.60 4.061082
1042.70 4.046879
1042.80 4.042462
1042.90 4.047185
1043.00 4.049941
1043.10 4.059707
1043.20 4.078208
1043.30 4.092329
1043.40 4.098383
1043.50 4.104707
1043.60 4.11213
1043.70 4.112611
1043.80 4.111775
1043.90 4.112597
1044.00 4.115703
1044.10 4.121188
1044.20 4.116458
1044.30 4.112021
1044.40 4.105729
1044.50 4.098211
1044.60 4.090932
1044.70 4.09098
1044.80 4.095996
1044.90 4.098373
1045.00 4.10233
1045.10 4.106733
1045.20 4.110978
1045.30 4.114406
1045.40 4.119026
1045.50 4.122113
1045.60 4.12283
1045.70 4.127085
1045.80 4.128315
1045.90 4.126316
1046.00 4.123419
1046.10 4.119843
1046.20 4.115386
1046.30 4.116484
1046.40 4.115742
1046.50 4.112433
1046.60 4.105299
1046.70 4.097843
1046.80 4.087273
1046.90 4.071263
1047.00 4.05562
1047.10 4.042789
1047.20 4.038503
1047.30 4.035962
1047.40 4.041313
1047.50 4.048387
1047.60 4.053951
1047.70 4.057506
1047.80 4.06049
1047.90 4.068655
1048.00 4.075938
1048.10 4.081295
1048.20 4.080276
1048.30 4.08309
1048.40 4.084566
1048.50 4.079599
1048.60 4.073712
1048.70 4.070712
1048.80 4.07025
1048.90 4.069364
1049.00 4.076797
1049.10 4.084233
1049.20 4.090026
1049.30 4.078595
1049.40 4.065255
1049.50 4.044702
1049.60 4.005061
1049.70 3.963595
1049.80 3.94341
1049.90 3.947775
1050.00 3.958876
1050.10 3.990257
1050.20 4.025809
1050.30 4.056461
1050.40 4.072398
1050.50 4.087366
1050.60 4.090659
1050.70 4.085483
1050.80 4.079507
1050.90 4.073049
1051.00 4.067409
1051.10 4.06308
1051.20 4.049457
1051.30 4.03395
1051.40 4.022615
1051.50 4.024478
1051.60 4.026242
1051.70 4.025479
1051.80 4.023509
1051.90 4.021131
1052.00 4.027114
1052.10 4.032727
1052.20 4.040439
1052.30 4.046728
1052.40 4.052787
1052.50 4.053689
1052.60 4.058756
1052.70 4.065997
1052.80 4.076733
1052.90 4.085494
1053.00 4.091734
1053.10 4.087923
1053.20 4.081752
1053.30 4.073338
1053.40 4.068466
1053.50 4.063819
1053.60 4.062693
1053.70 4.060863
1053.80 4.063869
1053.90 4.067731
1054.00 4.071163
1054.10 4.065689
1054.20 4.060256
1054.30 4.056226
1054.40 4.062333
1054.50 4.068198
1054.60 4.075148
1054.70 4.071479
1054.80 4.066307
1054.90 4.060723
1055.00 4.063764
1055.10 4.065827
1055.20 4.062287
1055.30 4.058974
1055.40 4.0593
1055.50 4.055164
1055.60 4.047657
1055.70 4.041128
1055.80 4.034001
1055.90 4.026032
1056.00 4.020896
1056.10 4.019429
1056.20 4.016908
1056.30 4.014008
1056.40 4.012423
1056.50 4.011502
1056.60 4.012907
1056.70 4.015465
1056.80 4.018474
1056.90 4.020598
1057.00 4.023043
1057.10 4.024886
1057.20 4.027296
1057.30 4.025804
1057.40 4.022525
1057.50 4.020042
1057.60 4.027187
1057.70 4.032816
1057.80 4.036915
1057.90 4.037147
1058.00 4.038505
1058.10 4.041961
1058.20 4.030755
1058.30 4.019532
1058.40 3.99052
1058.50 3.949856
1058.60 3.910357
1058.70 3.897536
1058.80 3.899455
1058.90 3.909925
1059.00 3.946529
1059.10 3.985186
1059.20 4.012309
1059.30 4.023019
1059.40 4.033351
1059.50 4.033132
1059.60 4.031687
1059.70 4.033811
1059.80 4.038842
1059.90 4.040661
1060.00 4.03928
1060.10 4.035884
1060.20 4.032042
1060.30 4.024743
1060.40 4.01323
1060.50 4.001445
1060.60 3.992875
1060.70 3.984306
1060.80 3.97623
1060.90 3.966359
1061.00 3.956092
1061.10 3.955749
1061.20 3.969261
1061.30 3.983974
1061.40 3.996878
1061.50 4.007872
1061.60 4.016417
1061.70 4.017266
1061.80 4.015692
1061.90 4.013262
1062.00 4.008647
1062.10 4.004155
1062.20 4.002117
1062.30 4.002493
1062.40 4.003322
1062.50 4.008222
1062.60 4.015713
1062.70 4.018698
1062.80 4.023251
1062.90 4.028572
1063.00 4.033392
1063.10 4.029345
1063.20 4.025243
1063.30 4.019956
1063.40 4.01439
1063.50 4.01318
1063.60 4.019521
1063.70 4.026094
1063.80 4.028482
1063.90 4.027784
1064.00 4.026305
1064.10 4.025163
1064.20 4.024268
1064.30 4.024077
1064.40 4.025093
1064.50 4.025553
1064.60 4.025271
1064.70 4.021766
1064.80 4.017299
1064.90 4.013455
1065.00 4.011029
1065.10 4.012823
1065.20 4.014394
1065.30 4.015025
1065.40 4.007096
1065.50 3.996647
1065.60 3.986004
1065.70 3.984542
1065.80 3.987203
1065.90 3.987825
1066.00 3.966275
1066.10 3.942495
1066.20 3.915365
1066.30 3.890928
1066.40 3.867578
1066.50 3.875552
1066.60 3.902137
1066.70 3.929686
1066.80 3.948338
1066.90 3.964516
1067.00 3.969597
1067.10 3.967132
1067.20 3.96359
1067.30 3.967187
1067.40 3.971705
1067.50 3.974424
1067.60 3.973383
1067.70 3.970421
1067.80 3.968842
1067.90 3.969667
1068.00 3.970224
1068.10 3.979465
1068.20 4.000043
1068.30 4.019282
1068.40 4.021382
1068.50 4.019172
1068.60 4.017701
1068.70 4.014172
1068.80 4.009286
1068.90 4.012619
1069.00 4.018016
1069.10 4.022512
1069.20 4.021873
1069.30 4.022359
1069.40 4.026781
1069.50 4.027015
1069.60 4.024935
1069.70 4.023513
1069.80 4.027303
1069.90 4.030946
1070.00 4.036518
1070.10 4.040312
1070.20 4.039543
1070.30 4.033782
1070.40 4.027833
1070.50 4.017114
1070.60 4.008966
1070.70 4.00161
1070.80 3.998465
1070.90 3.995591
1071.00 3.99601
1071.10 3.998181
1071.20 3.999158
1071.30 3.999156
1071.40 3.999137
1071.50 4.000112
1071.60 4.003476
1071.70 4.004593
1071.80 4.004643
1071.90 3.999259
1072.00 3.994833
1072.10 3.994249
1072.20 3.993052
1072.30 3.992175
1072.40 3.977883
1072.50 3.950952
1072.60 3.922839
1072.70 3.899277
1072.80 3.883334
1072.90 3.867314
1073.00 3.873558
1073.10 3.883221
1073.20 3.900176
1073.30 3.901966
1073.40 3.90326
1073.50 3.909786
1073.60 3.924519
1073.70 3.941983
1073.80 3.963597
1073.90 3.987157
1074.00 3.999977
1074.10 4.002355
1074.20 4.004387
1074.30 4.002123
1074.40 3.994993
1074.50 3.98688
1074.60 3.979432
1074.70 3.972707
1074.80 3.968001
1074.90 3.963158
1075.00 3.959315
1075.10 3.958091
1075.20 3.956001
1075.30 3.954367
1075.40 3.956994
1075.50 3.959711
1075.60 3.962356
1075.70 3.966453
1075.80 3.972304
1075.90 3.976656
1076.00 3.977527
1076.10 3.978957
1076.20 3.977017
1076.30 3.973122
1076.40 3.972396
1076.50 3.977922
1076.60 3.984136
1076.70 3.983804
1076.80 3.97866
1076.90 3.973314
1077.00 3.972164
1077.10 3.972273
1077.20 3.972165
1077.30 3.959443
1077.40 3.944983
1077.50 3.929337
1077.60 3.915311
1077.70 3.901174
1077.80 3.89814
1077.90 3.907135
1078.00 3.917304
1078.10 3.924002
1078.20 3.929168
1078.30 3.930798
1078.40 3.929049
1078.50 3.926649
1078.60 3.925096
1078.70 3.921594
1078.80 3.919954
1078.90 3.922678
1079.00 3.924815
1079.10 3.926161
1079.20 3.920062
1079.30 3.91424
1079.40 3.910325
1079.50 3.91471
1079.60 3.919013
1079.70 3.927171
1079.80 3.93658
1079.90 3.942591
1080.00 3.93965
1080.10 3.936618
1080.20 3.934588
1080.30 3.931535
1080.40 3.928811
1080.50 3.931518
1080.60 3.937846
1080.70 3.944102
1080.80 3.939466
1080.90 3.933139
1081.00 3.915688
1081.10 3.891101
1081.20 3.867302
1081.30 3.855262
1081.40 3.848304
1081.50 3.848562
1081.60 3.873624
1081.70 3.901923
1081.80 3.922948
1081.90 3.924735
1082.00 3.927611
1082.10 3.92646
1082.20 3.922111
1082.30 3.918517
1082.40 3.917009
1082.50 3.916771
1082.60 3.910035
1082.70 3.897498
1082.80 3.886191
1082.90 3.866645
1083.00 3.851101
1083.10 3.838134
1083.20 3.8373
1083.30 3.83396
1083.40 3.843212
1083.50 3.859869
1083.60 3.874376
1083.70 3.878025
1083.80 3.883167
1083.90 3.888557
1084.00 3.894309
1084.10 3.90193
1084.20 3.907432
1084.30 3.905529
1084.40 3.902053
1084.50 3.900849
1084.60 3.899806
1084.70 3.899277
1084.80 3.900332
1084.90 3.905184
1085.00 3.908901
1085.10 3.914719
1085.20 3.921959
1085.30 3.925753
1085.40 3.92217
1085.50 3.917828
1085.60 3.918242
1085.70 3.92486
1085.80 3.929438
1085.90 3.929483
1086.00 3.928803
1086.10 3.931053
1086.20 3.931392
1086.30 3.932359
1086.40 3.92804
1086.50 3.920625
1086.60 3.915392
1086.70 3.914034
1086.80 3.912832
1086.90 3.901864
1087.00 3.889201
1087.10 3.878095
1087.20 3.877782
1087.30 3.873821
1087.40 3.872878
1087.50 3.879597
1087.60 3.885398
1087.70 3.890404
1087.80 3.894888
1087.90 3.901339
1088.00 3.898938
1088.10 3.895825
1088.20 3.893686
1088.30 3.891493
1088.40 3.887842
1088.50 3.883272
1088.60 3.880934
1088.70 3.880159
1088.80 3.885329
1088.90 3.890739
1089.00 3.894852
1089.10 3.892739
1089.20 3.890247
1089.30 3.888076
1089.40 3.881688
1089.50 3.873912
1089.60 3.866085
1089.70 3.86793
1089.80 3.870441
1089.90 3.879035
1090.00 3.88769
1090.10 3.894986
1090.20 3.895858
1090.30 3.894067
1090.40 3.893211
1090.50 3.887705
1090.60 3.882521
1090.70 3.873696
1090.80 3.865571
1090.90 3.859612
1091.00 3.862642
1091.10 3.867723
1091.20 3.871683
1091.30 3.873361
1091.40 3.876219
1091.50 3.875209
1091.60 3.872356
1091.70 3.869949
1091.80 3.869271
1091.90 3.866576
1092.00 3.869035
1092.10 3.879567
1092.20 3.890708
1092.30 3.898231
1092.40 3.904136
1092.50 3.910388
1092.60 3.913043
1092.70 3.912188
1092.80 3.906953
1092.90 3.899242
1093.00 3.892136
1093.10 3.892006
1093.20 3.895401
1093.30 3.898329
1093.40 3.903252
1093.50 3.91345
1093.60 3.925082
1093.70 3.934842
1093.80 3.944048
1093.90 3.948364
1094.00 3.954603
1094.10 3.960906
1094.20 3.968979
1094.30 3.966899
1094.40 3.963832
1094.50 3.954125
1094.60 3.943532
1094.70 3.937933
1094.80 3.939913
1094.90 3.941999
1095.00 3.938333
1095.10 3.934059
1095.20 3.928928
1095.30 3.919294
1095.40 3.907839
1095.50 3.900846
1095.60 3.894505
1095.70 3.887553
1095.80 3.88468
1095.90 3.886257
1096.00 3.886485
1096.10 3.884514
1096.20 3.883615
1096.30 3.883799
1096.40 3.878391
1096.50 3.872751
1096.60 3.861992
1096.70 3.84994
1096.80 3.840257
1096.90 3.838521
1097.00 3.836981
1097.10 3.834156
1097.20 3.833669
1097.30 3.834187
1097.40 3.836705
1097.50 3.843923
1097.60 3.850928
1097.70 3.847682
1097.80 3.84427
1097.90 3.843256
1098.00 3.841079
1098.10 3.838747
1098.20 3.838622
1098.30 3.835364
1098.40 3.830672
1098.50 3.831998
1098.60 3.83564
1098.70 3.838806
1098.80 3.842914
1098.90 3.848163
1099.00 3.847963
1099.10 3.847227
1099.20 3.846416
1099.30 3.850981
1099.40 3.857972
1099.50 3.865576
1099.60 3.868279
1099.70 3.866311
1099.80 3.863566
1099.90 3.859186
1100.00 3.854556
1100.10 3.854683
1100.20 3.855416
1100.30 3.855063
1100.40 3.852564
1100.50 3.851745
1100.60 3.850055
1100.70 3.844264
1100.80 3.838737
1100.90 3.838531
1101.00 3.84793
1101.10 3.857702
1101.20 3.856329
1101.30 3.850566
1101.40 3.843996
1101.50 3.836805
1101.60 3.82996
1101.70 3.828371
1101.80 3.825813
1101.90 3.823573
1102.00 3.826481
1102.10 3.832373
1102.20 3.836916
1102.30 3.842074
1102.40 3.848994
1102.50 3.850827
1102.60 3.855984
1102.70 3.861655
1102.80 3.862661
1102.90 3.856052
1103.00 3.852096
1103.10 3.849975
1103.20 3.845596
1103.30 3.842008
1103.40 3.837058
1103.50 3.830625
1103.60 3.825871
1103.70 3.829693
1103.80 3.833162
1103.90 3.840318
1104.00 3.848019
1104.10 3.855631
1104.20 3.863599
1104.30 3.871587
1104.40 3.867084
1104.50 3.854245
1104.60 3.841576
1104.70 3.836488
1104.80 3.836618
1104.90 3.838134
1105.00 3.837403
1105.10 3.835871
1105.20 3.840361
1105.30 3.842405
1105.40 3.84315
1105.50 3.838299
1105.60 3.836332
1105.70 3.829877
1105.80 3.825596
1105.90 3.823899
1106.00 3.827396
1106.10 3.825639
1106.20 3.82379
1106.30 3.821282
1106.40 3.819961
1106.50 3.819092
1106.60 3.81408
1106.70 3.807952
1106.80 3.801447
1106.90 3.795246
1107.00 3.788183
1107.10 3.792024
1107.20 3.807141
1107.30 3.81781
1107.40 3.818664
1107.50 3.819368
1107.60 3.829568
1107.70 3.835307
1107.80 3.840219
1107.90 3.837425
1108.00 3.836962
1108.10 3.837523
1108.20 3.835959
1108.30 3.833898
1108.40 3.829929
1108.50 3.829193
1108.60 3.828469
1108.70 3.831141
1108.80 3.830173
1108.90 3.829769
1109.00 3.832879
1109.10 3.837077
1109.20 3.841206
1109.30 3.848185
1109.40 3.856558
1109.50 3.857228
1109.60 3.852365
1109.70 3.847841
1109.80 3.845351
1109.90 3.840003
1110.00 3.836442
1110.10 3.836452
1110.20 3.836446
1110.30 3.838405
1110.40 3.837678
1110.50 3.835575
1110.60 3.826733
1110.70 3.821642
1110.80 3.818025
1110.90 3.81393
1111.00 3.808267
1111.10 3.801948
1111.20 3.80955
1111.30 3.816652
1111.40 3.819012
1111.50 3.813002
1111.60 3.80676
1111.70 3.799345
1111.80 3.791694
1111.90 3.782951
1112.00 3.781071
1112.10 3.779626
1112.20 3.775963
1112.30 3.774418
1112.40 3.776637
1112.50 3.786905
1112.60 3.799947
1112.70 3.812569
1112.80 3.829113
1112.90 3.845885
1113.00 3.854603
1113.10 3.852833
1113.20 3.850875
1113.30 3.841192
1113.40 3.826938
1113.50 3.819769
1113.60 3.824701
1113.70 3.830015
1113.80 3.820944
1113.90 3.814825
1114.00 3.809967
1114.10 3.809142
1114.20 3.806417
1114.30 3.800153
1114.40 3.804854
1114.50 3.813384
1114.60 3.828731
1114.70 3.830239
1114.80 3.83219
1114.90 3.839478
1115.00 3.847966
1115.10 3.84992
1115.20 3.829509
1115.30 3.806918
1115.40 3.796389
1115.50 3.77804
1115.60 3.760652
1115.70 3.742895
1115.80 3.750591
1115.90 3.760362
1116.00 3.774084
1116.10 3.786168
1116.20 3.810099
1116.30 3.83842
1116.40 3.866721
1116.50 3.867741
1116.60 3.853083
1116.70 3.839225
1116.80 3.81001
1116.90 3.774777
1117.00 3.745312
1117.10 3.770215
1117.20 3.796101
1117.30 3.80748
1117.40 3.808288
1117.50 3.806192
1117.60 3.791908
1117.70 3.765426
1117.80 3.749121
1117.90 3.772861
1118.00 3.801909
1118.10 3.822807
1118.20 3.841056
1118.30 3.855674
1118.40 3.861503
1118.50 3.837178
1118.60 3.818156
1118.70 3.811195
1118.80 3.823413
1118.90 3.840313
1119.00 3.849636
1119.10 3.852157
1119.20 3.83731
1119.30 3.823066
1119.40 3.809594
1119.50 3.779314
1119.60 3.754853
1119.70 3.736452
1119.80 3.75173
1119.90 3.778474
1120.00 3.798608
1120.10 3.815425
1120.20 3.825951
1120.30 3.830505
1120.40 3.825273
1120.50 3.788153
1120.60 3.75671
1120.70 3.72551
1120.80 3.746087
1120.90 3.765406
1121.00 3.781036
1121.10 3.80235
1121.20 3.827379
1121.30 3.842488
1121.40 3.830238
1121.50 3.797717
1121.60 3.79592
1121.70 3.80328
1121.80 3.829291
1121.90 3.840641
1122.00 3.851361
1122.10 3.853041
1122.20 3.852232
1122.30 3.85058
1122.40 3.846709
1122.50 3.83981
1122.60 3.827085
1122.70 3.786215
1122.80 3.737285
1122.90 3.710211
1123.00 3.707919
1123.10 3.742153
1123.20 3.766051
1123.30 3.790166
1123.40 3.847005
1123.50 3.899842
1123.60 3.930899
1123.70 3.890482
1123.80 3.832045
1123.90 3.794646
1124.00 3.773061
1124.10 3.741677
1124.20 3.708321
1124.30 3.681488
1124.40 3.734102
1124.50 3.782696
1124.60 3.828305
1124.70 3.807934
1124.80 3.781288
1124.90 3.760348
1125.00 3.755794
1125.10 3.761075
1125.20 3.754888
1125.30 3.723974
1125.40 3.690145
1125.50 3.650497
1125.60 3.609257
1125.70 3.512194
1125.80 3.431799
1125.90 3.417582
1126.00 3.541293
1126.10 3.66805
1126.20 3.749592
1126.30 3.767954
1126.40 3.767217
1126.50 3.771878
1126.60 3.776599
1126.70 3.769314
1126.80 3.764111
1126.90 3.759985
1127.00 3.78115
1127.10 3.799951
1127.20 3.814493
1127.30 3.819869
1127.40 3.822257
1127.50 3.827004
1127.60 3.822074
1127.70 3.809211
1127.80 3.794519
1127.90 3.772149
1128.00 3.747583
1128.10 3.727923
1128.20 3.724045
1128.30 3.752309
1128.40 3.779077
1128.50 3.789295
1128.60 3.783072
1128.70 3.773582
1128.80 3.770741
1128.90 3.766562
1129.00 3.757591
1129.10 3.749531
1129.20 3.748379
1129.30 3.754447
1129.40 3.760937
1129.50 3.770252
1129.60 3.797163
1129.70 3.822756
1129.80 3.833856
1129.90 3.794966
1130.00 3.744896
1130.10 3.704327
1130.20 3.69504
1130.30 3.69871
1130.40 3.701355
1130.50 3.704107
1130.60 3.711539
1130.70 3.719244
1130.80 3.726883
1130.90 3.736617
1131.00 3.747997
1131.10 3.757291
1131.20 3.757278
1131.30 3.754714
1131.40 3.75067
1131.50 3.747672
1131.60 3.746021
1131.70 3.747123
1131.80 3.75169
1131.90 3.753059
1132.00 3.754211
1132.10 3.755665
1132.20 3.77229
1132.30 3.78641
1132.40 3.792669
1132.50 3.77722
1132.60 3.758012
1132.70 3.743688
1132.80 3.738969
1132.90 3.740944
1133.00 3.742065
1133.10 3.744344
1133.20 3.760184
1133.30 3.771796
1133.40 3.783152
1133.50 3.768453
1133.60 3.755126
1133.70 3.752292
1133.80 3.738809
1133.90 3.722646
1134.00 3.704975
1134.10 3.707389
1134.20 3.732207
1134.30 3.754058
1134.40 3.776223
1134.50 3.814092
1134.60 3.85161
1134.70 3.887674
1134.80 3.841664
1134.90 3.790738
1135.00 3.750432
1135.10 3.687886
1135.20 3.629842
1135.30 3.57665
1135.40 3.590982
1135.50 3.667593
1135.60 3.736377
1135.70 3.790627
1135.80 3.819434
1135.90 3.844891
1136.00 3.845552
1136.10 3.785377
1136.20 3.7297
1136.30 3.70336
1136.40 3.687473
1136.50 3.670517
1136.60 3.645149
1136.70 3.648006
1136.80 3.686188
1136.90 3.721854
1137.00 3.74631
1137.10 3.732268
1137.20 3.720508
1137.30 3.711366
1137.40 3.714683
1137.50 3.711354
1137.60 3.697618
1137.70 3.656876
1137.80 3.60378
1137.90 3.548499
1138.00 3.488059
1138.10 3.424559
1138.20 3.357607
1138.30 3.294601
1138.40 3.294297
1138.50 3.306341
1138.60 3.379967
1138.70 3.417433
1138.80 3.46428
1138.90 3.508112
1139.00 3.560001
1139.10 3.610447
1139.20 3.639659
1139.30 3.654321
1139.40 3.666624
1139.50 3.679176
1139.60 3.700363
1139.70 3.717494
1139.80 3.727498
1139.90 3.712316
1140.00 3.648221
1140.10 3.581011
1140.20 3.49563
1140.30 3.389275
1140.40 3.279887
1140.50 3.183911
1140.60 3.160178
1140.70 3.196249
1140.80 3.25707
1140.90 3.355941
1141.00 3.415133
1141.10 3.485483
1141.20 3.54771
1141.30 3.606606
1141.40 3.658189
1141.50 3.682931
1141.60 3.689915
1141.70 3.692293
1141.80 3.695157
1141.90 3.697494
1142.00 3.696079
1142.10 3.68702
1142.20 3.663387
1142.30 3.636867
1142.40 3.611703
1142.50 3.607702
1142.60 3.615335
1142.70 3.623948
1142.80 3.63264
1142.90 3.648611
1143.00 3.667243
1143.10 3.684049
1143.20 3.691387
1143.30 3.691659
1143.40 3.692177
1143.50 3.697373
1143.60 3.714273
1143.70 3.728316
1143.80 3.728417
1143.90 3.704689
1144.00 3.679999
1144.10 3.662602
1144.20 3.662683
1144.30 3.669559
1144.40 3.677529
1144.50 3.670804
1144.60 3.644208
1144.70 3.621472
1144.80 3.618041
1144.90 3.653562
1145.00 3.688347
1145.10 3.707039
1145.20 3.700596
1145.30 3.690725
1145.40 3.685846
1145.50 3.68559
1145.60 3.68568
1145.70 3.684627
1145.80 3.681607
1145.90 3.67783
1146.00 3.675847
1146.10 3.675629
1146.20 3.685981
1146.30 3.694733
1146.40 3.704738
1146.50 3.719786
1146.60 3.733668
1146.70 3.742194
1146.80 3.719285
1146.90 3.685326
1147.00 3.658234
1147.10 3.651094
1147.20 3.662742
1147.30 3.667887
1147.40 3.658255
1147.50 3.63925
1147.60 3.628586
1147.70 3.62684
1147.80 3.621279
1147.90 3.609968
1148.00 3.602711
1148.10 3.615978
1148.20 3.638254
1148.30 3.655006
1148.40 3.662814
1148.50 3.663083
1148.60 3.660317
1148.70 3.653292
1148.80 3.641765
1148.90 3.632807
1149.00 3.640046
1149.10 3.630008
1149.20 3.620194
1149.30 3.616282
1149.40 3.655184
1149.50 3.707145
1149.60 3.743458
1149.70 3.74657
1149.80 3.720965
1149.90 3.697624
1150.00 3.679161
1150.10 3.64109
1150.20 3.609757
1150.30 3.582179
1150.40 3.609781
1150.50 3.640322
1150.60 3.664057
1150.70 3.673344
1150.80 3.677538
1150.90 3.683099
1151.00 3.683564
1151.10 3.675465
1151.20 3.666184
1151.30 3.656292
1151.40 3.647656
1151.50 3.641766
1151.60 3.644701
1151.70 3.659005
1151.80 3.67113
1151.90 3.669374
1152.00 3.664636
1152.10 3.661253
1152.20 3.667027
1152.30 3.675905
1152.40 3.677124
1152.50 3.671235
1152.60 3.654789
1152.70 3.646173
1152.80 3.640297
1152.90 3.644041
1153.00 3.612845
1153.10 3.584148
1153.20 3.559714
1153.30 3.586579
1153.40 3.632269
1153.50 3.671545
1153.60 3.684517
1153.70 3.677532
1153.80 3.672413
1153.90 3.669065
1154.00 3.661137
1154.10 3.652452
1154.20 3.642995
1154.30 3.634231
1154.40 3.626456
1154.50 3.621044
1154.60 3.621235
1154.70 3.622921
1154.80 3.623264
1154.90 3.624018
1155.00 3.62752
1155.10 3.632219
1155.20 3.637829
1155.30 3.639665
1155.40 3.641992
1155.50 3.6449
1155.60 3.656954
1155.70 3.666522
1155.80 3.671188
1155.90 3.653673
1156.00 3.629548
1156.10 3.612564
1156.20 3.615756
1156.30 3.632288
1156.40 3.64255
1156.50 3.640457
1156.60 3.630234
1156.70 3.62181
1156.80 3.620625
1156.90 3.618514
1157.00 3.614719
1157.10 3.612409
1157.20 3.615674
1157.30 3.622816
1157.40 3.630998
1157.50 3.637424
1157.60 3.639893
1157.70 3.638997
1157.80 3.631954
1157.90 3.622906
1158.00 3.617299
1158.10 3.619425
1158.20 3.618707
1158.30 3.617628
1158.40 3.613285
1158.50 3.621017
1158.60 3.632399
1158.70 3.642354
1158.80 3.646311
1158.90 3.643749
1159.00 3.638657
1159.10 3.624732
1159.20 3.591846
1159.30 3.559598
1159.40 3.526631
1159.50 3.521032
1159.60 3.515158
1159.70 3.517956
1159.80 3.528326
1159.90 3.542777
1160.00 3.561685
1160.10 3.580842
1160.20 3.597234
1160.30 3.608394
1160.40 3.602136
1160.50 3.578607
1160.60 3.550698
1160.70 3.513409
1160.80 3.471159
1160.90 3.429161
1161.00 3.397416
1161.10 3.398522
1161.20 3.412191
1161.30 3.4381
1161.40 3.470563
1161.50 3.503169
1161.60 3.535778
1161.70 3.563141
1161.80 3.579599
1161.90 3.592223
1162.00 3.59801
1162.10 3.605947
1162.20 3.611467
1162.30 3.612973
1162.40 3.605738
1162.50 3.599178
1162.60 3.594572
1162.70 3.592415
1162.80 3.592533
1162.90 3.592907
1163.00 3.594856
1163.10 3.600593
1163.20 3.604803
1163.30 3.606938
1163.40 3.598176
1163.50 3.586375
1163.60 3.570303
1163.70 3.547777
1163.80 3.521904
1163.90 3.495247
1164.00 3.474875
1164.10 3.466704
1164.20 3.470452
1164.30 3.48937
1164.40 3.519769
1164.50 3.551334
1164.60 3.577151
1164.70 3.58924
1164.80 3.59773
1164.90 3.601823
1165.00 3.603107
1165.10 3.602203
1165.20 3.598033
1165.30 3.59369
1165.40 3.590721
1165.50 3.588524
1165.60 3.58706
1165.70 3.587919
1165.80 3.589237
1165.90 3.587395
1166.00 3.580844
1166.10 3.575774
1166.20 3.577931
1166.30 3.582684
1166.40 3.586005
1166.50 3.587197
1166.60 3.589453
1166.70 3.591581
1166.80 3.592365
1166.90 3.592265
1167.00 3.589633
1167.10 3.587384
1167.20 3.582941
1167.30 3.578585
1167.40 3.573768
1167.50 3.571886
1167.60 3.570137
1167.70 3.568587
1167.80 3.568435
1167.90 3.56994
1168.00 3.572391
1168.10 3.574589
1168.20 3.577136
1168.30 3.57879
1168.40 3.57888
1168.50 3.576342
1168.60 3.565928
1168.70 3.551672
1168.80 3.526611
1168.90 3.492225
1169.00 3.450108
1169.10 3.402582
1169.20 3.366752
1169.30 3.354749
1169.40 3.367927
1169.50 3.396727
1169.60 3.435321
1169.70 3.478703
1169.80 3.515162
1169.90 3.535529
1170.00 3.551534
1170.10 3.557377
1170.20 3.562284
1170.30 3.562592
1170.40 3.561637
1170.50 3.560681
1170.60 3.557497
1170.70 3.554381
1170.80 3.554084
1170.90 3.555569
1171.00 3.556612
1171.10 3.556611
1171.20 3.554681
1171.30 3.553474
1171.40 3.555209
1171.50 3.556591
1171.60 3.557375
1171.70 3.555525
1171.80 3.555138
1171.90 3.554504
1172.00 3.553805
1172.10 3.552431
1172.20 3.551237
1172.30 3.551027
1172.40 3.550911
1172.50 3.550148
1172.60 3.54979
1172.70 3.549668
1172.80 3.550271
1172.90 3.550441
1173.00 3.550338
1173.10 3.549743
1173.20 3.548901
1173.30 3.549117
1173.40 3.552141
1173.50 3.555961
1173.60 3.557767
1173.70 3.556677
1173.80 3.556315
1173.90 3.556361
1174.00 3.558639
1174.10 3.55516
1174.20 3.553869
1174.30 3.551818
1174.40 3.550581
1174.50 3.549324
1174.60 3.548816
1174.70 3.55354
1174.80 3.561229
1174.90 3.565961
1175.00 3.564709
1175.10 3.560538
1175.20 3.555174
1175.30 3.548641
1175.40 3.539427
1175.50 3.53241
1175.60 3.531429
1175.70 3.527944
1175.80 3.522506
1175.90 3.52075
1176.00 3.526305
1176.10 3.534792
1176.20 3.541863
1176.30 3.546504
1176.40 3.547878
1176.50 3.548456
1176.60 3.547516
1176.70 3.536625
1176.80 3.518991
1176.90 3.492848
1177.00 3.466829
1177.10 3.432986
1177.20 3.392865
1177.30 3.354027
1177.40 3.331974
1177.50 3.326152
1177.60 3.328357
1177.70 3.345407
1177.80 3.375267
1177.90 3.415899
1178.00 3.429423
1178.10 3.439132
1178.20 3.425485
1178.30 3.419818
1178.40 3.408419
1178.50 3.402336
1178.60 3.405846
1178.70 3.414516
1178.80 3.429716
1178.90 3.452881
1179.00 3.473973
1179.10 3.491816
1179.20 3.500589
1179.30 3.505011
1179.40 3.506807
1179.50 3.500565
1179.60 3.488414
1179.70 3.475384
1179.80 3.469056
1179.90 3.467875
1180.00 3.469344
1180.10 3.471124
1180.20 3.474103
1180.30 3.482154
1180.40 3.490891
1180.50 3.502996
1180.60 3.508308
1180.70 3.512406
1180.80 3.514061
1180.90 3.515596
1181.00 3.516903
1181.10 3.515627
1181.20 3.512708
1181.30 3.510296
1181.40 3.508538
1181.50 3.510098
1181.60 3.515038
1181.70 3.519179
1181.80 3.521202
1181.90 3.513407
1182.00 3.506215
1182.10 3.497791
1182.20 3.483055
1182.30 3.468107
1182.40 3.448169
1182.50 3.417865
1182.60 3.378554
1182.70 3.323197
1182.80 3.257497
1182.90 3.198388
1183.00 3.151497
1183.10 3.132638
1183.20 3.163334
1183.30 3.196736
1183.40 3.26499
1183.50 3.329794
1183.60 3.391346
1183.70 3.43203
1183.80 3.451977
1183.90 3.466964
1184.00 3.477138
1184.10 3.481593
1184.20 3.486161
1184.30 3.491619
1184.40 3.497017
1184.50 3.492833
1184.60 3.485878
1184.70 3.478823
1184.80 3.482672
1184.90 3.48586
1185.00 3.488188
1185.10 3.483739
1185.20 3.48034
1185.30 3.478804
1185.40 3.479198
1185.50 3.482273
1185.60 3.484307
1185.70 3.485899
1185.80 3.487913
1185.90 3.489106
1186.00 3.489306
1186.10 3.487666
1186.20 3.486299
1186.30 3.48709
1186.40 3.488856
1186.50 3.489844
1186.60 3.488402
1186.70 3.484946
1186.80 3.479764
1186.90 3.476891
1187.00 3.477395
1187.10 3.481597
1187.20 3.486476
1187.30 3.489188
1187.40 3.492724
1187.50 3.496088
1187.60 3.496312
1187.70 3.489318
1187.80 3.478809
1187.90 3.46592
1188.00 3.445306
1188.10 3.411932
1188.20 3.365647
1188.30 3.307006
1188.40 3.252872
1188.50 3.206372
1188.60 3.178096
1188.70 3.198242
1188.80 3.228342
1188.90 3.286417
1189.00 3.338497
1189.10 3.387291
1189.20 3.412158
1189.30 3.418439
1189.40 3.41406
1189.50 3.411032
1189.60 3.412314
1189.70 3.418348
1189.80 3.42622
1189.90 3.437526
1190.00 3.448751
1190.10 3.45769
1190.20 3.464883
1190.30 3.472082
1190.40 3.478372
1190.50 3.480471
1190.60 3.479248
1190.70 3.477334
1190.80 3.476244
1190.90 3.472522
1191.00 3.466862
1191.10 3.461323
1191.20 3.455923
1191.30 3.453902
1191.40 3.451802
1191.50 3.453164
1191.60 3.457656
1191.70 3.462293
1191.80 3.465089
1191.90 3.464938
1192.00 3.463167
1192.10 3.461779
1192.20 3.461284
1192.30 3.460074
1192.40 3.457372
1192.50 3.453082
1192.60 3.453187
1192.70 3.454081
1192.80 3.457454
1192.90 3.456035
1193.00 3.454641
1193.10 3.453357
1193.20 3.456086
1193.30 3.459018
1193.40 3.46087
1193.50 3.459747
1193.60 3.453066
1193.70 3.445945
1193.80 3.43964
1193.90 3.437095
1194.00 3.435692
1194.10 3.435078
1194.20 3.436589
1194.30 3.438478
1194.40 3.437924
1194.50 3.435663
1194.60 3.432099
1194.70 3.42623
1194.80 3.415152
1194.90 3.398178
1195.00 3.379561
1195.10 3.35989
1195.20 3.352898
1195.30 3.351405
1195.40 3.360756
1195.50 3.37106
1195.60 3.381047
1195.70 3.386708
1195.80 3.391802
1195.90 3.393744
1196.00 3.39837
1196.10 3.405791
1196.20 3.414504
1196.30 3.42113
1196.40 3.422014
1196.50 3.418824
1196.60 3.415911
1196.70 3.412632
1196.80 3.403781
1196.90 3.394379
1197.00 3.374954
1197.10 3.34039
1197.20 3.294889
1197.30 3.234852
1197.40 3.181182
1197.50 3.137455
1197.60 3.115581
1197.70 3.119835
1197.80 3.156979
1197.90 3.20391
1198.00 3.266181
1198.10 3.307005
1198.20 3.346882
1198.30 3.357358
1198.40 3.362327
1198.50 3.364047
1198.60 3.366295
1198.70 3.370343
1198.80 3.370893
1198.90 3.371882
1199.00 3.374455
1199.10 3.375937
1199.20 3.377127
1199.30 3.376504
1199.40 3.375959
1199.50 3.376516
1199.60 3.377483
1199.70 3.382274
1199.80 3.387393
1199.90 3.391574
1200.00 3.392761
